#      z (A) rho (1e-6/A2) irho (1e-6/A2)
-15.00000000   0.00944929   0.00000000
-14.90000000   0.01008869   0.00000000
-14.80000000   0.01076737   0.00000000
-14.70000000   0.01148743   0.00000000
-14.60000000   0.01225110   0.00000000
-14.50000000   0.01306069   0.00000000
-14.40000000   0.01391863   0.00000000
-14.30000000   0.01482744   0.00000000
-14.20000000   0.01578974   0.00000000
-14.10000000   0.01680828   0.00000000
-14.00000000   0.01788591   0.00000000
-13.90000000   0.01902561   0.00000000
-13.80000000   0.02023048   0.00000000
-13.70000000   0.02150371   0.00000000
-13.60000000   0.02284867   0.00000000
-13.50000000   0.02426882   0.00000000
-13.40000000   0.02576776   0.00000000
-13.30000000   0.02734923   0.00000000
-13.20000000   0.02901711   0.00000000
-13.10000000   0.03077542   0.00000000
-13.00000000   0.03262832   0.00000000
-12.90000000   0.03458011   0.00000000
-12.80000000   0.03663526   0.00000000
-12.70000000   0.03879836   0.00000000
-12.60000000   0.04107419   0.00000000
-12.50000000   0.04346766   0.00000000
-12.40000000   0.04598383   0.00000000
-12.30000000   0.04862796   0.00000000
-12.20000000   0.05140542   0.00000000
-12.10000000   0.05432177   0.00000000
-12.00000000   0.05738275   0.00000000
-11.90000000   0.06059423   0.00000000
-11.80000000   0.06396227   0.00000000
-11.70000000   0.06749309   0.00000000
-11.60000000   0.07119307   0.00000000
-11.50000000   0.07506877   0.00000000
-11.40000000   0.07912691   0.00000000
-11.30000000   0.08337438   0.00000000
-11.20000000   0.08781823   0.00000000
-11.10000000   0.09246569   0.00000000
-11.00000000   0.09732413   0.00000000
-10.90000000   0.10240112   0.00000000
-10.80000000   0.10770434   0.00000000
-10.70000000   0.11324168   0.00000000
-10.60000000   0.11902116   0.00000000
-10.50000000   0.12505094   0.00000000
-10.40000000   0.13133937   0.00000000
-10.30000000   0.13789489   0.00000000
-10.20000000   0.14472614   0.00000000
-10.10000000   0.15184186   0.00000000
-10.00000000   0.15925092   0.00000000
 -9.90000000   0.16696235   0.00000000
 -9.80000000   0.17498527   0.00000000
 -9.70000000   0.18332891   0.00000000
 -9.60000000   0.19200265   0.00000000
 -9.50000000   0.20101592   0.00000000
 -9.40000000   0.21037827   0.00000000
 -9.30000000   0.22009934   0.00000000
 -9.20000000   0.23018883   0.00000000
 -9.10000000   0.24065652   0.00000000
 -9.00000000   0.25151223   0.00000000
 -8.90000000   0.26276586   0.00000000
 -8.80000000   0.27442732   0.00000000
 -8.70000000   0.28650656   0.00000000
 -8.60000000   0.29901355   0.00000000
 -8.50000000   0.31195824   0.00000000
 -8.40000000   0.32535060   0.00000000
 -8.30000000   0.33920058   0.00000000
 -8.20000000   0.35351808   0.00000000
 -8.10000000   0.36831297   0.00000000
 -8.00000000   0.38359504   0.00000000
 -7.90000000   0.39937403   0.00000000
 -7.80000000   0.41565958   0.00000000
 -7.70000000   0.43246124   0.00000000
 -7.60000000   0.44978841   0.00000000
 -7.50000000   0.46765041   0.00000000
 -7.40000000   0.48605636   0.00000000
 -7.30000000   0.50501526   0.00000000
 -7.20000000   0.52453590   0.00000000
 -7.10000000   0.54462688   0.00000000
 -7.00000000   0.56529661   0.00000000
 -6.90000000   0.58655326   0.00000000
 -6.80000000   0.60840473   0.00000000
 -6.70000000   0.63085871   0.00000000
 -6.60000000   0.65392256   0.00000000
 -6.50000000   0.67760339   0.00000000
 -6.40000000   0.70190798   0.00000000
 -6.30000000   0.72684277   0.00000000
 -6.20000000   0.75241388   0.00000000
 -6.10000000   0.77862706   0.00000000
 -6.00000000   0.80548769   0.00000000
 -5.90000000   0.83300075   0.00000000
 -5.80000000   0.86117082   0.00000000
 -5.70000000   0.89000205   0.00000000
 -5.60000000   0.91949817   0.00000000
 -5.50000000   0.94966242   0.00000000
 -5.40000000   0.98049763   0.00000000
 -5.30000000   1.01200610   0.00000000
 -5.20000000   1.04418965   0.00000000
 -5.10000000   1.07704961   0.00000000
 -5.00000000   1.11058677   0.00000000
 -4.90000000   1.14480141   0.00000000
 -4.80000000   1.17969325   0.00000000
 -4.70000000   1.21526146   0.00000000
 -4.60000000   1.25150465   0.00000000
 -4.50000000   1.28842087   0.00000000
 -4.40000000   1.32600758   0.00000000
 -4.30000000   1.36426164   0.00000000
 -4.20000000   1.40317935   0.00000000
 -4.10000000   1.44275637   0.00000000
 -4.00000000   1.48298778   0.00000000
 -3.90000000   1.52386806   0.00000000
 -3.80000000   1.56539104   0.00000000
 -3.70000000   1.60754997   0.00000000
 -3.60000000   1.65033747   0.00000000
 -3.50000000   1.69374555   0.00000000
 -3.40000000   1.73776560   0.00000000
 -3.30000000   1.78238839   0.00000000
 -3.20000000   1.82760408   0.00000000
 -3.10000000   1.87340224   0.00000000
 -3.00000000   1.91977181   0.00000000
 -2.90000000   1.96670114   0.00000000
 -2.80000000   2.01417801   0.00000000
 -2.70000000   2.06218959   0.00000000
 -2.60000000   2.11072249   0.00000000
 -2.50000000   2.15976274   0.00000000
 -2.40000000   2.20929584   0.00000000
 -2.30000000   2.25930674   0.00000000
 -2.20000000   2.30977984   0.00000000
 -2.10000000   2.36069904   0.00000000
 -2.00000000   2.41204776   0.00000000
 -1.90000000   2.46380890   0.00000000
 -1.80000000   2.51596491   0.00000000
 -1.70000000   2.56849778   0.00000000
 -1.60000000   2.62138909   0.00000000
 -1.50000000   2.67461997   0.00000000
 -1.40000000   2.72817118   0.00000000
 -1.30000000   2.78202312   0.00000000
 -1.20000000   2.83615580   0.00000000
 -1.10000000   2.89054893   0.00000000
 -1.00000000   2.94518191   0.00000000
 -0.90000000   3.00003386   0.00000000
 -0.80000000   3.05508362   0.00000000
 -0.70000000   3.11030981   0.00000000
 -0.60000000   3.16569085   0.00000000
 -0.50000000   3.22120495   0.00000000
 -0.40000000   3.27683019   0.00000000
 -0.30000000   3.33254450   0.00000000
 -0.20000000   3.38832570   0.00000000
 -0.10000000   3.44415154   0.00000000
 -0.00000000   3.49999971   0.00000000
  0.10000000   3.55584788   0.00000000
  0.20000000   3.61167372   0.00000000
  0.30000000   3.66745491   0.00000000
  0.40000000   3.72316920   0.00000000
  0.50000000   3.77879442   0.00000000
  0.60000000   3.83430850   0.00000000
  0.70000000   3.88968951   0.00000000
  0.80000000   3.94491567   0.00000000
  0.90000000   3.99996539   0.00000000
  1.00000000   4.05481729   0.00000000
  1.10000000   4.10945023   0.00000000
  1.20000000   4.16384331   0.00000000
  1.30000000   4.21797593   0.00000000
  1.40000000   4.27182780   0.00000000
  1.50000000   4.32537894   0.00000000
  1.60000000   4.37860974   0.00000000
  1.70000000   4.43150095   0.00000000
  1.80000000   4.48403373   0.00000000
  1.90000000   4.53618964   0.00000000
  2.00000000   4.58795066   0.00000000
  2.10000000   4.63929925   0.00000000
  2.20000000   4.69021833   0.00000000
  2.30000000   4.74069128   0.00000000
  2.40000000   4.79070201   0.00000000
  2.50000000   4.84023494   0.00000000
  2.60000000   4.88927501   0.00000000
  2.70000000   4.93780770   0.00000000
  2.80000000   4.98581907   0.00000000
  2.90000000   5.03329570   0.00000000
  3.00000000   5.08022478   0.00000000
  3.10000000   5.12659407   0.00000000
  3.20000000   5.17239193   0.00000000
  3.30000000   5.21760730   0.00000000
  3.40000000   5.26222975   0.00000000
  3.50000000   5.30624942   0.00000000
  3.60000000   5.34965710   0.00000000
  3.70000000   5.39244418   0.00000000
  3.80000000   5.43460265   0.00000000
  3.90000000   5.47612513   0.00000000
  4.00000000   5.51700487   0.00000000
  4.10000000   5.55723570   0.00000000
  4.20000000   5.59681211   0.00000000
  4.30000000   5.63572915   0.00000000
  4.40000000   5.67398250   0.00000000
  4.50000000   5.71156843   0.00000000
  4.60000000   5.74848383   0.00000000
  4.70000000   5.78472614   0.00000000
  4.80000000   5.82029340   0.00000000
  4.90000000   5.85518422   0.00000000
  5.00000000   5.88939777   0.00000000
  5.10000000   5.92293376   0.00000000
  5.20000000   5.95579247   0.00000000
  5.30000000   5.98797468   0.00000000
  5.40000000   6.01948171   0.00000000
  5.50000000   6.05031538   0.00000000
  5.60000000   6.08047799   0.00000000
  5.70000000   6.10997234   0.00000000
  5.80000000   6.13880168   0.00000000
  5.90000000   6.16696973   0.00000000
  6.00000000   6.19448064   0.00000000
  6.10000000   6.22133896   0.00000000
  6.20000000   6.24754968   0.00000000
  6.30000000   6.27311816   0.00000000
  6.40000000   6.29805014   0.00000000
  6.50000000   6.32235172   0.00000000
  6.60000000   6.34602934   0.00000000
  6.70000000   6.36908978   0.00000000
  6.80000000   6.39154010   0.00000000
  6.90000000   6.41338768   0.00000000
  7.00000000   6.43464018   0.00000000
  7.10000000   6.45530548   0.00000000
  7.20000000   6.47539176   0.00000000
  7.30000000   6.49490737   0.00000000
  7.40000000   6.51386092   0.00000000
  7.50000000   6.53226117   0.00000000
  7.60000000   6.55011710   0.00000000
  7.70000000   6.56743783   0.00000000
  7.80000000   6.58423262   0.00000000
  7.90000000   6.60051087   0.00000000
  8.00000000   6.61628209   0.00000000
  8.10000000   6.63155591   0.00000000
  8.20000000   6.64634202   0.00000000
  8.30000000   6.66065021   0.00000000
  8.40000000   6.67449029   0.00000000
  8.50000000   6.68787214   0.00000000
  8.60000000   6.70080568   0.00000000
  8.70000000   6.71330082   0.00000000
  8.80000000   6.72536750   0.00000000
  8.90000000   6.73701564   0.00000000
  9.00000000   6.74825514   0.00000000
  9.10000000   6.75909588   0.00000000
  9.20000000   6.76954769   0.00000000
  9.30000000   6.77962037   0.00000000
  9.40000000   6.78932362   0.00000000
  9.50000000   6.79866712   0.00000000
  9.60000000   6.80766042   0.00000000
  9.70000000   6.81631303   0.00000000
  9.80000000   6.82463432   0.00000000
  9.90000000   6.83263359   0.00000000
 10.00000000   6.84032002   0.00000000
 10.10000000   6.84770265   0.00000000
 10.20000000   6.85479044   0.00000000
 10.30000000   6.86159217   0.00000000
 10.40000000   6.86811653   0.00000000
 10.50000000   6.87437203   0.00000000
 10.60000000   6.88036707   0.00000000
 10.70000000   6.88610987   0.00000000
 10.80000000   6.89160852   0.00000000
 10.90000000   6.89687094   0.00000000
 11.00000000   6.90190488   0.00000000
 11.10000000   6.90671796   0.00000000
 11.20000000   6.91131760   0.00000000
 11.30000000   6.91571108   0.00000000
 11.40000000   6.91990549   0.00000000
 11.50000000   6.92390775   0.00000000
 11.60000000   6.92772463   0.00000000
 11.70000000   6.93136270   0.00000000
 11.80000000   6.93482839   0.00000000
 11.90000000   6.93812791   0.00000000
 12.00000000   6.94126735   0.00000000
 12.10000000   6.94425259   0.00000000
 12.20000000   6.94708935   0.00000000
 12.30000000   6.94978317   0.00000000
 12.40000000   6.95233945   0.00000000
 12.50000000   6.95476337   0.00000000
 12.60000000   6.95705999   0.00000000
 12.70000000   6.95923418   0.00000000
 12.80000000   6.96129064   0.00000000
 12.90000000   6.96323393   0.00000000
 13.00000000   6.96506842   0.00000000
 13.10000000   6.96679834   0.00000000
 13.20000000   6.96842776   0.00000000
 13.30000000   6.96996060   0.00000000
 13.40000000   6.97140061   0.00000000
 13.50000000   6.97275142   0.00000000
 13.60000000   6.97401649   0.00000000
 13.70000000   6.97519914   0.00000000
 13.80000000   6.97630255   0.00000000
 13.90000000   6.97732977   0.00000000
 14.00000000   6.97828371   0.00000000
 14.10000000   6.97916713   0.00000000
 14.20000000   6.97998270   0.00000000
 14.30000000   6.98073291   0.00000000
 14.40000000   6.98142018   0.00000000
 14.50000000   6.98204677   0.00000000
 14.60000000   6.98261484   0.00000000
 14.70000000   6.98312643   0.00000000
 14.80000000   6.98358346   0.00000000
 14.90000000   6.98398776   0.00000000
 15.00000000   6.98434105   0.00000000
 15.10000000   6.98464492   0.00000000
 15.20000000   6.98490090   0.00000000
 15.30000000   6.98511039   0.00000000
 15.40000000   6.98527472   0.00000000
 15.50000000   6.98539510   0.00000000
 15.60000000   6.98547268   0.00000000
 15.70000000   6.98550850   0.00000000
 15.80000000   6.98550353   0.00000000
 15.90000000   6.98545867   0.00000000
 16.00000000   6.98537471   0.00000000
 16.10000000   6.98525238   0.00000000
 16.20000000   6.98509235   0.00000000
 16.30000000   6.98489520   0.00000000
 16.40000000   6.98466145   0.00000000
 16.50000000   6.98439156   0.00000000
 16.60000000   6.98408590   0.00000000
 16.70000000   6.98374482   0.00000000
 16.80000000   6.98336857   0.00000000
 16.90000000   6.98295736   0.00000000
 17.00000000   6.98251136   0.00000000
 17.10000000   6.98203065   0.00000000
 17.20000000   6.98151530   0.00000000
 17.30000000   6.98096531   0.00000000
 17.40000000   6.98038063   0.00000000
 17.50000000   6.97976117   0.00000000
 17.60000000   6.97910680   0.00000000
 17.70000000   6.97841734   0.00000000
 17.80000000   6.97769258   0.00000000
 17.90000000   6.97693226   0.00000000
 18.00000000   6.97613611   0.00000000
 18.10000000   6.97530379   0.00000000
 18.20000000   6.97443494   0.00000000
 18.30000000   6.97352919   0.00000000
 18.40000000   6.97258611   0.00000000
 18.50000000   6.97160526   0.00000000
 18.60000000   6.97058616   0.00000000
 18.70000000   6.96952832   0.00000000
 18.80000000   6.96843123   0.00000000
 18.90000000   6.96729433   0.00000000
 19.00000000   6.96611706   0.00000000
 19.10000000   6.96489883   0.00000000
 19.20000000   6.96363906   0.00000000
 19.30000000   6.96233712   0.00000000
 19.40000000   6.96099237   0.00000000
 19.50000000   6.95960417   0.00000000
 19.60000000   6.95817186   0.00000000
 19.70000000   6.95669477   0.00000000
 19.80000000   6.95517221   0.00000000
 19.90000000   6.95360351   0.00000000
 20.00000000   6.95198795   0.00000000
 20.10000000   6.95032484   0.00000000
 20.20000000   6.94861347   0.00000000
 20.30000000   6.94685312   0.00000000
 20.40000000   6.94504308   0.00000000
 20.50000000   6.94318264   0.00000000
 20.60000000   6.94127108   0.00000000
 20.70000000   6.93930768   0.00000000
 20.80000000   6.93729174   0.00000000
 20.90000000   6.93522254   0.00000000
 21.00000000   6.93309938   0.00000000
 21.10000000   6.93092156   0.00000000
 21.20000000   6.92868839   0.00000000
 21.30000000   6.92639919   0.00000000
 21.40000000   6.92405329   0.00000000
 21.50000000   6.92165002   0.00000000
 21.60000000   6.91918873   0.00000000
 21.70000000   6.91666879   0.00000000
 21.80000000   6.91408957   0.00000000
 21.90000000   6.91145047   0.00000000
 22.00000000   6.90875089   0.00000000
 22.10000000   6.90599026   0.00000000
 22.20000000   6.90316803   0.00000000
 22.30000000   6.90028365   0.00000000
 22.40000000   6.89733662   0.00000000
 22.50000000   6.89432644   0.00000000
 22.60000000   6.89125264   0.00000000
 22.70000000   6.88811478   0.00000000
 22.80000000   6.88491243   0.00000000
 22.90000000   6.88164519   0.00000000
 23.00000000   6.87831271   0.00000000
 23.10000000   6.87491463   0.00000000
 23.20000000   6.87145066   0.00000000
 23.30000000   6.86792050   0.00000000
 23.40000000   6.86432390   0.00000000
 23.50000000   6.86066065   0.00000000
 23.60000000   6.85693055   0.00000000
 23.70000000   6.85313346   0.00000000
 23.80000000   6.84926926   0.00000000
 23.90000000   6.84533785   0.00000000
 24.00000000   6.84133919   0.00000000
 24.10000000   6.83727327   0.00000000
 24.20000000   6.83314011   0.00000000
 24.30000000   6.82893977   0.00000000
 24.40000000   6.82467234   0.00000000
 24.50000000   6.82033798   0.00000000
 24.60000000   6.81593685   0.00000000
 24.70000000   6.81146917   0.00000000
 24.80000000   6.80693520   0.00000000
 24.90000000   6.80233523   0.00000000
 25.00000000   6.79766961   0.00000000
 25.10000000   6.79293872   0.00000000
 25.20000000   6.78814297   0.00000000
 25.30000000   6.78328284   0.00000000
 25.40000000   6.77835882   0.00000000
 25.50000000   6.77337146   0.00000000
 25.60000000   6.76832136   0.00000000
 25.70000000   6.76320914   0.00000000
 25.80000000   6.75803548   0.00000000
 25.90000000   6.75280111   0.00000000
 26.00000000   6.74750676   0.00000000
 26.10000000   6.74215326   0.00000000
 26.20000000   6.73674144   0.00000000
 26.30000000   6.73127219   0.00000000
 26.40000000   6.72574643   0.00000000
 26.50000000   6.72016513   0.00000000
 26.60000000   6.71452930   0.00000000
 26.70000000   6.70883999   0.00000000
 26.80000000   6.70309828   0.00000000
 26.90000000   6.69730530   0.00000000
 27.00000000   6.69146223   0.00000000
 27.10000000   6.68557025   0.00000000
 27.20000000   6.67963062   0.00000000
 27.30000000   6.67364461   0.00000000
 27.40000000   6.66761354   0.00000000
 27.50000000   6.66153875   0.00000000
 27.60000000   6.65542162   0.00000000
 27.70000000   6.64926358   0.00000000
 27.80000000   6.64306607   0.00000000
 27.90000000   6.63683057   0.00000000
 28.00000000   6.63055858   0.00000000
 28.10000000   6.62425166   0.00000000
 28.20000000   6.61791136   0.00000000
 28.30000000   6.61153928   0.00000000
 28.40000000   6.60513704   0.00000000
 28.50000000   6.59870628   0.00000000
 28.60000000   6.59224867   0.00000000
 28.70000000   6.58576590   0.00000000
 28.80000000   6.57925968   0.00000000
 28.90000000   6.57273173   0.00000000
 29.00000000   6.56618381   0.00000000
 29.10000000   6.55961767   0.00000000
 29.20000000   6.55303510   0.00000000
 29.30000000   6.54643788   0.00000000
 29.40000000   6.53982782   0.00000000
 29.50000000   6.53320674   0.00000000
 29.60000000   6.52657645   0.00000000
 29.70000000   6.51993880   0.00000000
 29.80000000   6.51329560   0.00000000
 29.90000000   6.50664872   0.00000000
 30.00000000   6.49999999   0.00000000
 30.10000000   6.49335126   0.00000000
 30.20000000   6.48670438   0.00000000
 30.30000000   6.48006119   0.00000000
 30.40000000   6.47342353   0.00000000
 30.50000000   6.46679324   0.00000000
 30.60000000   6.46017216   0.00000000
 30.70000000   6.45356210   0.00000000
 30.80000000   6.44696488   0.00000000
 30.90000000   6.44038231   0.00000000
 31.00000000   6.43381617   0.00000000
 31.10000000   6.42726824   0.00000000
 31.20000000   6.42074029   0.00000000
 31.30000000   6.41423406   0.00000000
 31.40000000   6.40775129   0.00000000
 31.50000000   6.40129367   0.00000000
 31.60000000   6.39486291   0.00000000
 31.70000000   6.38846066   0.00000000
 31.80000000   6.38208858   0.00000000
 31.90000000   6.37574827   0.00000000
 32.00000000   6.36944134   0.00000000
 32.10000000   6.36316935   0.00000000
 32.20000000   6.35693384   0.00000000
 32.30000000   6.35073631   0.00000000
 32.40000000   6.34457826   0.00000000
 32.50000000   6.33846112   0.00000000
 32.60000000   6.33238631   0.00000000
 32.70000000   6.32635522   0.00000000
 32.80000000   6.32036919   0.00000000
 32.90000000   6.31442954   0.00000000
 33.00000000   6.30853754   0.00000000
 33.10000000   6.30269443   0.00000000
 33.20000000   6.29690143   0.00000000
 33.30000000   6.29115969   0.00000000
 33.40000000   6.28547034   0.00000000
 33.50000000   6.27983446   0.00000000
 33.60000000   6.27425312   0.00000000
 33.70000000   6.26872731   0.00000000
 33.80000000   6.26325799   0.00000000
 33.90000000   6.25784611   0.00000000
 34.00000000   6.25249254   0.00000000
 34.10000000   6.24719812   0.00000000
 34.20000000   6.24196365   0.00000000
 34.30000000   6.23678990   0.00000000
 34.40000000   6.23167757   0.00000000
 34.50000000   6.22662735   0.00000000
 34.60000000   6.22163986   0.00000000
 34.70000000   6.21671570   0.00000000
 34.80000000   6.21185540   0.00000000
 34.90000000   6.20705947   0.00000000
 35.00000000   6.20232838   0.00000000
 35.10000000   6.19766254   0.00000000
 35.20000000   6.19306234   0.00000000
 35.30000000   6.18852810   0.00000000
 35.40000000   6.18406013   0.00000000
 35.50000000   6.17965867   0.00000000
 35.60000000   6.17532394   0.00000000
 35.70000000   6.17105613   0.00000000
 35.80000000   6.16685535   0.00000000
 35.90000000   6.16272170   0.00000000
 36.00000000   6.15865525   0.00000000
 36.10000000   6.15465601   0.00000000
 36.20000000   6.15072397   0.00000000
 36.30000000   6.14685906   0.00000000
 36.40000000   6.14306119   0.00000000
 36.50000000   6.13933025   0.00000000
 36.60000000   6.13566606   0.00000000
 36.70000000   6.13206844   0.00000000
 36.80000000   6.12853715   0.00000000
 36.90000000   6.12507194   0.00000000
 37.00000000   6.12167250   0.00000000
 37.10000000   6.11833853   0.00000000
 37.20000000   6.11506967   0.00000000
 37.30000000   6.11186553   0.00000000
 37.40000000   6.10872571   0.00000000
 37.50000000   6.10564977   0.00000000
 37.60000000   6.10263725   0.00000000
 37.70000000   6.09968766   0.00000000
 37.80000000   6.09680048   0.00000000
 37.90000000   6.09397519   0.00000000
 38.00000000   6.09121122   0.00000000
 38.10000000   6.08850799   0.00000000
 38.20000000   6.08586491   0.00000000
 38.30000000   6.08328134   0.00000000
 38.40000000   6.08075666   0.00000000
 38.50000000   6.07829020   0.00000000
 38.60000000   6.07588130   0.00000000
 38.70000000   6.07352926   0.00000000
 38.80000000   6.07123338   0.00000000
 38.90000000   6.06899294   0.00000000
 39.00000000   6.06680720   0.00000000
 39.10000000   6.06467543   0.00000000
 39.20000000   6.06259687   0.00000000
 39.30000000   6.06057076   0.00000000
 39.40000000   6.05859631   0.00000000
 39.50000000   6.05667275   0.00000000
 39.60000000   6.05479929   0.00000000
 39.70000000   6.05297513   0.00000000
 39.80000000   6.05119945   0.00000000
 39.90000000   6.04947147   0.00000000
 40.00000000   6.04779035   0.00000000
 40.10000000   6.04615529   0.00000000
 40.20000000   6.04456546   0.00000000
 40.30000000   6.04302005   0.00000000
 40.40000000   6.04151822   0.00000000
 40.50000000   6.04005916   0.00000000
 40.60000000   6.03864203   0.00000000
 40.70000000   6.03726603   0.00000000
 40.80000000   6.03593032   0.00000000
 40.90000000   6.03463408   0.00000000
 41.00000000   6.03337651   0.00000000
 41.10000000   6.03215677   0.00000000
 41.20000000   6.03097408   0.00000000
 41.30000000   6.02982760   0.00000000
 41.40000000   6.02871656   0.00000000
 41.50000000   6.02764015   0.00000000
 41.60000000   6.02659757   0.00000000
 41.70000000   6.02558806   0.00000000
 41.80000000   6.02461083   0.00000000
 41.90000000   6.02366510   0.00000000
 42.00000000   6.02275013   0.00000000
 42.10000000   6.02186515   0.00000000
 42.20000000   6.02100943   0.00000000
 42.30000000   6.02018221   0.00000000
 42.40000000   6.01938278   0.00000000
 42.50000000   6.01861042   0.00000000
 42.60000000   6.01786442   0.00000000
 42.70000000   6.01714407   0.00000000
 42.80000000   6.01644869   0.00000000
 42.90000000   6.01577760   0.00000000
 43.00000000   6.01513013   0.00000000
 43.10000000   6.01450562   0.00000000
 43.20000000   6.01390343   0.00000000
 43.30000000   6.01332292   0.00000000
 43.40000000   6.01276346   0.00000000
 43.50000000   6.01222445   0.00000000
 43.60000000   6.01170527   0.00000000
 43.70000000   6.01120533   0.00000000
 43.80000000   6.01072407   0.00000000
 43.90000000   6.01026089   0.00000000
 44.00000000   6.00981526   0.00000000
 44.10000000   6.00938663   0.00000000
 44.20000000   6.00897445   0.00000000
 44.30000000   6.00857821   0.00000000
 44.40000000   6.00819740   0.00000000
 44.50000000   6.00783152   0.00000000
 44.60000000   6.00748007   0.00000000
 44.70000000   6.00714258   0.00000000
 44.80000000   6.00681859   0.00000000
 44.90000000   6.00650764   0.00000000
 45.00000000   6.00620928   0.00000000
 45.10000000   6.00592309   0.00000000
 45.20000000   6.00564863   0.00000000
 45.30000000   6.00538550   0.00000000
 45.40000000   6.00513330   0.00000000
 45.50000000   6.00489164   0.00000000
 45.60000000   6.00466013   0.00000000
 45.70000000   6.00443840   0.00000000
 45.80000000   6.00422609   0.00000000
 45.90000000   6.00402285   0.00000000
 46.00000000   6.00382833   0.00000000
 46.10000000   6.00364221   0.00000000
 46.20000000   6.00346415   0.00000000
 46.30000000   6.00329383   0.00000000
 46.40000000   6.00313096   0.00000000
 46.50000000   6.00297522   0.00000000
 46.60000000   6.00282632   0.00000000
 46.70000000   6.00268397   0.00000000
 46.80000000   6.00254789   0.00000000
 46.90000000   6.00241780   0.00000000
 47.00000000   6.00229344   0.00000000
 47.10000000   6.00217454   0.00000000
 47.20000000   6.00206082   0.00000000
 47.30000000   6.00195205   0.00000000
 47.40000000   6.00184796   0.00000000
 47.50000000   6.00174829   0.00000000
 47.60000000   6.00165280   0.00000000
 47.70000000   6.00156123   0.00000000
 47.80000000   6.00147333   0.00000000
 47.90000000   6.00138885   0.00000000
 48.00000000   6.00130752   0.00000000
 48.10000000   6.00122909   0.00000000
 48.20000000   6.00115330   0.00000000
 48.30000000   6.00107985   0.00000000
 48.40000000   6.00100849   0.00000000
 48.50000000   6.00093890   0.00000000
 48.60000000   6.00087080   0.00000000
 48.70000000   6.00080386   0.00000000
 48.80000000   6.00073775   0.00000000
 48.90000000   6.00067212   0.00000000
 49.00000000   6.00060659   0.00000000
 49.10000000   6.00054077   0.00000000
 49.20000000   6.00047425   0.00000000
 49.30000000   6.00040657   0.00000000
 49.40000000   6.00033725   0.00000000
 49.50000000   6.00026577   0.00000000
 49.60000000   6.00019158   0.00000000
 49.70000000   6.00011407   0.00000000
 49.80000000   6.00003261   0.00000000
 49.90000000   5.99994650   0.00000000
 50.00000000   5.99985498   0.00000000
 50.10000000   5.99975724   0.00000000
 50.20000000   5.99965240   0.00000000
 50.30000000   5.99953951   0.00000000
 50.40000000   5.99941754   0.00000000
 50.50000000   5.99928539   0.00000000
 50.60000000   5.99914185   0.00000000
 50.70000000   5.99898564   0.00000000
 50.80000000   5.99881536   0.00000000
 50.90000000   5.99862951   0.00000000
 51.00000000   5.99842647   0.00000000
 51.10000000   5.99820450   0.00000000
 51.20000000   5.99796173   0.00000000
 51.30000000   5.99769616   0.00000000
 51.40000000   5.99740563   0.00000000
 51.50000000   5.99708785   0.00000000
 51.60000000   5.99674034   0.00000000
 51.70000000   5.99636049   0.00000000
 51.80000000   5.99594547   0.00000000
 51.90000000   5.99549231   0.00000000
 52.00000000   5.99499782   0.00000000
 52.10000000   5.99445862   0.00000000
 52.20000000   5.99387113   0.00000000
 52.30000000   5.99323156   0.00000000
 52.40000000   5.99253589   0.00000000
 52.50000000   5.99177989   0.00000000
 52.60000000   5.99095908   0.00000000
 52.70000000   5.99006878   0.00000000
 52.80000000   5.98910404   0.00000000
 52.90000000   5.98805969   0.00000000
 53.00000000   5.98693030   0.00000000
 53.10000000   5.98571020   0.00000000
 53.20000000   5.98439348   0.00000000
 53.30000000   5.98297397   0.00000000
 53.40000000   5.98144528   0.00000000
 53.50000000   5.97980076   0.00000000
 53.60000000   5.97803353   0.00000000
 53.70000000   5.97613648   0.00000000
 53.80000000   5.97410227   0.00000000
 53.90000000   5.97192336   0.00000000
 54.00000000   5.96959199   0.00000000
 54.10000000   5.96710023   0.00000000
 54.20000000   5.96443994   0.00000000
 54.30000000   5.96160285   0.00000000
 54.40000000   5.95858053   0.00000000
 54.50000000   5.95536443   0.00000000
 54.60000000   5.95194589   0.00000000
 54.70000000   5.94831618   0.00000000
 54.80000000   5.94446650   0.00000000
 54.90000000   5.94038803   0.00000000
 55.00000000   5.93607196   0.00000000
 55.10000000   5.93150949   0.00000000
 55.20000000   5.92669189   0.00000000
 55.30000000   5.92161053   0.00000000
 55.40000000   5.91625690   0.00000000
 55.50000000   5.91062265   0.00000000
 55.60000000   5.90469966   0.00000000
 55.70000000   5.89848003   0.00000000
 55.80000000   5.89195613   0.00000000
 55.90000000   5.88512068   0.00000000
 56.00000000   5.87796673   0.00000000
 56.10000000   5.87048776   0.00000000
 56.20000000   5.86267766   0.00000000
 56.30000000   5.85453084   0.00000000
 56.40000000   5.84604219   0.00000000
 56.50000000   5.83720720   0.00000000
 56.60000000   5.82802193   0.00000000
 56.70000000   5.81848310   0.00000000
 56.80000000   5.80858810   0.00000000
 56.90000000   5.79833501   0.00000000
 57.00000000   5.78772267   0.00000000
 57.10000000   5.77675069   0.00000000
 57.20000000   5.76541946   0.00000000
 57.30000000   5.75373023   0.00000000
 57.40000000   5.74168507   0.00000000
 57.50000000   5.72928691   0.00000000
 57.60000000   5.71653959   0.00000000
 57.70000000   5.70344781   0.00000000
 57.80000000   5.69001720   0.00000000
 57.90000000   5.67625429   0.00000000
 58.00000000   5.66216652   0.00000000
 58.10000000   5.64776221   0.00000000
 58.20000000   5.63305063   0.00000000
 58.30000000   5.61804189   0.00000000
 58.40000000   5.60274699   0.00000000
 58.50000000   5.58717779   0.00000000
 58.60000000   5.57134696   0.00000000
 58.70000000   5.55526798   0.00000000
 58.80000000   5.53895508   0.00000000
 58.90000000   5.52242326   0.00000000
 59.00000000   5.50568816   0.00000000
 59.10000000   5.48876610   0.00000000
 59.20000000   5.47167399   0.00000000
 59.30000000   5.45442930   0.00000000
 59.40000000   5.43704997   0.00000000
 59.50000000   5.41955441   0.00000000
 59.60000000   5.40196139   0.00000000
 59.70000000   5.38429002   0.00000000
 59.80000000   5.36655965   0.00000000
 59.90000000   5.34878984   0.00000000
 60.00000000   5.33100029   0.00000000
 60.10000000   5.31321073   0.00000000
 60.20000000   5.29544093   0.00000000
 60.30000000   5.27771057   0.00000000
 60.40000000   5.26003922   0.00000000
 60.50000000   5.24244622   0.00000000
 60.60000000   5.22495068   0.00000000
 60.70000000   5.20757138   0.00000000
 60.80000000   5.19032672   0.00000000
 60.90000000   5.17323465   0.00000000
 61.00000000   5.15631263   0.00000000
 61.10000000   5.13957758   0.00000000
 61.20000000   5.12304581   0.00000000
 61.30000000   5.10673298   0.00000000
 61.40000000   5.09065406   0.00000000
 61.50000000   5.07482330   0.00000000
 61.60000000   5.05925418   0.00000000
 61.70000000   5.04395937   0.00000000
 61.80000000   5.02895073   0.00000000
 61.90000000   5.01423925   0.00000000
 62.00000000   4.99983506   0.00000000
 62.10000000   4.98574741   0.00000000
 62.20000000   4.97198463   0.00000000
 62.30000000   4.95855417   0.00000000
 62.40000000   4.94546256   0.00000000
 62.50000000   4.93271540   0.00000000
 62.60000000   4.92031743   0.00000000
 62.70000000   4.90827247   0.00000000
 62.80000000   4.89658346   0.00000000
 62.90000000   4.88525248   0.00000000
 63.00000000   4.87428075   0.00000000
 63.10000000   4.86366868   0.00000000
 63.20000000   4.85341589   0.00000000
 63.30000000   4.84352120   0.00000000
 63.40000000   4.83398272   0.00000000
 63.50000000   4.82479782   0.00000000
 63.60000000   4.81596323   0.00000000
 63.70000000   4.80747501   0.00000000
 63.80000000   4.79932865   0.00000000
 63.90000000   4.79151906   0.00000000
 64.00000000   4.78404062   0.00000000
 64.10000000   4.77688725   0.00000000
 64.20000000   4.77005242   0.00000000
 64.30000000   4.76352919   0.00000000
 64.40000000   4.75731026   0.00000000
 64.50000000   4.75138804   0.00000000
 64.60000000   4.74575462   0.00000000
 64.70000000   4.74040187   0.00000000
 64.80000000   4.73532146   0.00000000
 64.90000000   4.73050487   0.00000000
 65.00000000   4.72594349   0.00000000
 65.10000000   4.72162859   0.00000000
 65.20000000   4.71755138   0.00000000
 65.30000000   4.71370304   0.00000000
 65.40000000   4.71007477   0.00000000
 65.50000000   4.70665777   0.00000000
 65.60000000   4.70344331   0.00000000
 65.70000000   4.70042276   0.00000000
 65.80000000   4.69758756   0.00000000
 65.90000000   4.69492929   0.00000000
 66.00000000   4.69243968   0.00000000
 66.10000000   4.69011062   0.00000000
 66.20000000   4.68793417   0.00000000
 66.30000000   4.68590260   0.00000000
 66.40000000   4.68400836   0.00000000
 66.50000000   4.68224413   0.00000000
 66.60000000   4.68060281   0.00000000
 66.70000000   4.67907754   0.00000000
 66.80000000   4.67766169   0.00000000
 66.90000000   4.67634886   0.00000000
 67.00000000   4.67513291   0.00000000
 67.10000000   4.67400794   0.00000000
 67.20000000   4.67296830   0.00000000
 67.30000000   4.67200859   0.00000000
 67.40000000   4.67112364   0.00000000
 67.50000000   4.67030853   0.00000000
 67.60000000   4.66955859   0.00000000
 67.70000000   4.66886938   0.00000000
 67.80000000   4.66823667   0.00000000
 67.90000000   4.66765648   0.00000000
 68.00000000   4.66712505   0.00000000
 68.10000000   4.66663881   0.00000000
 68.20000000   4.66619442   0.00000000
 68.30000000   4.66578872   0.00000000
 68.40000000   4.66541876   0.00000000
 68.50000000   4.66508177   0.00000000
 68.60000000   4.66477514   0.00000000
 68.70000000   4.66449646   0.00000000
 68.80000000   4.66424345   0.00000000
 68.90000000   4.66401401   0.00000000
 69.00000000   4.66380616   0.00000000
 69.10000000   4.66361810   0.00000000
 69.20000000   4.66344812   0.00000000
 69.30000000   4.66329465   0.00000000
 69.40000000   4.66315625   0.00000000
 69.50000000   4.66303158   0.00000000
 69.60000000   4.66291939   0.00000000
 69.70000000   4.66281855   0.00000000
 69.80000000   4.66272802   0.00000000
 69.90000000   4.66264682   0.00000000
 70.00000000   4.66257408   0.00000000
 70.10000000   4.66250899   0.00000000
 70.20000000   4.66245081   0.00000000
 70.30000000   4.66239886   0.00000000
 70.40000000   4.66235253   0.00000000
 70.50000000   4.66231126   0.00000000
 70.60000000   4.66227453   0.00000000
 70.70000000   4.66224188   0.00000000
 70.80000000   4.66221289   0.00000000
 70.90000000   4.66218717   0.00000000
 71.00000000   4.66216440   0.00000000
 71.10000000   4.66214424   0.00000000
 71.20000000   4.66212642   0.00000000
 71.30000000   4.66211068   0.00000000
 71.40000000   4.66209680   0.00000000
 71.50000000   4.66208457   0.00000000
 71.60000000   4.66207381   0.00000000
 71.70000000   4.66206435   0.00000000
 71.80000000   4.66205605   0.00000000
 71.90000000   4.66204876   0.00000000
 72.00000000   4.66204238   0.00000000
 72.10000000   4.66203679   0.00000000
 72.20000000   4.66203190   0.00000000
 72.30000000   4.66202764   0.00000000
 72.40000000   4.66202392   0.00000000
 72.50000000   4.66202068   0.00000000
 72.60000000   4.66201786   0.00000000
 72.70000000   4.66201540   0.00000000
 72.80000000   4.66201327   0.00000000
 72.90000000   4.66201143   0.00000000
 73.00000000   4.66200983   0.00000000
 73.10000000   4.66200844   0.00000000
 73.20000000   4.66200724   0.00000000
 73.30000000   4.66200621   0.00000000
 73.40000000   4.66200532   0.00000000
 73.50000000   4.66200455   0.00000000
 73.60000000   4.66200388   0.00000000
 73.70000000   4.66200332   0.00000000
 73.80000000   4.66200283   0.00000000
 73.90000000   4.66200241   0.00000000
 74.00000000   4.66200205   0.00000000
 74.10000000   4.66200174   0.00000000
 74.20000000   4.66200148   0.00000000
 74.30000000   4.66200125   0.00000000
 74.40000000   4.66200106   0.00000000
 74.50000000   4.66200090   0.00000000
 74.60000000   4.66200076   0.00000000
 74.70000000   4.66200064   0.00000000
 74.80000000   4.66200054   0.00000000
 74.90000000   4.66200046   0.00000000
 75.00000000   4.66200038   0.00000000
 75.10000000   4.66200032   0.00000000
 75.20000000   4.66200027   0.00000000
 75.30000000   4.66200023   0.00000000
 75.40000000   4.66200019   0.00000000
 75.50000000   4.66200016   0.00000000
 75.60000000   4.66200013   0.00000000
 75.70000000   4.66200011   0.00000000
 75.80000000   4.66200009   0.00000000
 75.90000000   4.66200008   0.00000000
 76.00000000   4.66200006   0.00000000
 76.10000000   4.66200005   0.00000000
 76.20000000   4.66200004   0.00000000
 76.30000000   4.66200004   0.00000000
 76.40000000   4.66200003   0.00000000
 76.50000000   4.66200003   0.00000000
 76.60000000   4.66200002   0.00000000
 76.70000000   4.66200002   0.00000000
 76.80000000   4.66200001   0.00000000
 76.90000000   4.66200001   0.00000000
 77.00000000   4.66200001   0.00000000
 77.10000000   4.66200001   0.00000000
 77.20000000   4.66200001   0.00000000
 77.30000000   4.66200001   0.00000000
 77.40000000   4.66200000   0.00000000
 77.50000000   4.66200000   0.00000000
 77.60000000   4.66200000   0.00000000
 77.70000000   4.66200000   0.00000000
 77.80000000   4.66200000   0.00000000
 77.90000000   4.66200000   0.00000000
 78.00000000   4.66200000   0.00000000
 78.10000000   4.66200000   0.00000000
 78.20000000   4.66200000   0.00000000
 78.30000000   4.66200000   0.00000000
 78.40000000   4.66200000   0.00000000
 78.50000000   4.66200000   0.00000000
 78.60000000   4.66200000   0.00000000
 78.70000000   4.66200000   0.00000000
 78.80000000   4.66200000   0.00000000
 78.90000000   4.66200000   0.00000000
 79.00000000   4.66200000   0.00000000
 79.10000000   4.66200000   0.00000000
 79.20000000   4.66200000   0.00000000
 79.30000000   4.66200000   0.00000000
 79.40000000   4.66200000   0.00000000
 79.50000000   4.66200000   0.00000000
 79.60000000   4.66200000   0.00000000
 79.70000000   4.66200000   0.00000000
 79.80000000   4.66200000   0.00000000
 79.90000000   4.66200000   0.00000000
 80.00000000   4.66200000   0.00000000
 80.10000000   4.66200000   0.00000000
 80.20000000   4.66200000   0.00000000
 80.30000000   4.66200000   0.00000000
 80.40000000   4.66200000   0.00000000
 80.50000000   4.66200000   0.00000000
 80.60000000   4.66200000   0.00000000
 80.70000000   4.66200000   0.00000000
 80.80000000   4.66200000   0.00000000
 80.90000000   4.66200000   0.00000000
 81.00000000   4.66200000   0.00000000
 81.10000000   4.66200000   0.00000000
 81.20000000   4.66200000   0.00000000
 81.30000000   4.66200000   0.00000000
 81.40000000   4.66200000   0.00000000
 81.50000000   4.66200000   0.00000000
 81.60000000   4.66200000   0.00000000
 81.70000000   4.66200000   0.00000000
 81.80000000   4.66200000   0.00000000
 81.90000000   4.66200000   0.00000000
 82.00000000   4.66200000   0.00000000
 82.10000000   4.66200000   0.00000000
 82.20000000   4.66200000   0.00000000
 82.30000000   4.66200000   0.00000000
 82.40000000   4.66200000   0.00000000
 82.50000000   4.66200000   0.00000000
 82.60000000   4.66200000   0.00000000
 82.70000000   4.66200000   0.00000000
 82.80000000   4.66200000   0.00000000
 82.90000000   4.66200000   0.00000000
 83.00000000   4.66200000   0.00000000
 83.10000000   4.66200000   0.00000000
 83.20000000   4.66200000   0.00000000
 83.30000000   4.66200000   0.00000000
 83.40000000   4.66200000   0.00000000
 83.50000000   4.66200000   0.00000000
 83.60000000   4.66200000   0.00000000
 83.70000000   4.66200000   0.00000000
 83.80000000   4.66200000   0.00000000
 83.90000000   4.66200000   0.00000000
 84.00000000   4.66200000   0.00000000
 84.10000000   4.66200000   0.00000000
 84.20000000   4.66200000   0.00000000
 84.30000000   4.66200000   0.00000000
 84.40000000   4.66200000   0.00000000
 84.50000000   4.66200000   0.00000000
 84.60000000   4.66200000   0.00000000
 84.70000000   4.66200000   0.00000000
 84.80000000   4.66200000   0.00000000
 84.90000000   4.66200000   0.00000000
 85.00000000   4.66200000   0.00000000
 85.10000000   4.66200000   0.00000000
 85.20000000   4.66200000   0.00000000
 85.30000000   4.66200000   0.00000000
 85.40000000   4.66200000   0.00000000
 85.50000000   4.66200000   0.00000000
 85.60000000   4.66200000   0.00000000
 85.70000000   4.66200000   0.00000000
 85.80000000   4.66200000   0.00000000
 85.90000000   4.66200000   0.00000000
 86.00000000   4.66200000   0.00000000
 86.10000000   4.66200000   0.00000000
 86.20000000   4.66200000   0.00000000
 86.30000000   4.66200000   0.00000000
 86.40000000   4.66200000   0.00000000
 86.50000000   4.66200000   0.00000000
 86.60000000   4.66200000   0.00000000
 86.70000000   4.66200000   0.00000000
 86.80000000   4.66200000   0.00000000
 86.90000000   4.66200000   0.00000000
 87.00000000   4.66200000   0.00000000
 87.10000000   4.66200000   0.00000000
 87.20000000   4.66200000   0.00000000
 87.30000000   4.66200000   0.00000000
 87.40000000   4.66200000   0.00000000
 87.50000000   4.66200000   0.00000000
 87.60000000   4.66200000   0.00000000
 87.70000000   4.66200000   0.00000000
 87.80000000   4.66200000   0.00000000
 87.90000000   4.66200000   0.00000000
 88.00000000   4.66200000   0.00000000
 88.10000000   4.66200000   0.00000000
 88.20000000   4.66200000   0.00000000
 88.30000000   4.66200000   0.00000000
 88.40000000   4.66200000   0.00000000
 88.50000000   4.66200000   0.00000000
 88.60000000   4.66200000   0.00000000
 88.70000000   4.66200000   0.00000000
 88.80000000   4.66200000   0.00000000
 88.90000000   4.66200000   0.00000000
 89.00000000   4.66200000   0.00000000
 89.10000000   4.66200000   0.00000000
 89.20000000   4.66200000   0.00000000
 89.30000000   4.66200000   0.00000000
 89.40000000   4.66200000   0.00000000
 89.50000000   4.66200000   0.00000000
 89.60000000   4.66200000   0.00000000
 89.70000000   4.66200000   0.00000000
 89.80000000   4.66200000   0.00000000
 89.90000000   4.66200000   0.00000000
 90.00000000   4.66200000   0.00000000
 90.10000000   4.66200000   0.00000000
 90.20000000   4.66200000   0.00000000
 90.30000000   4.66200000   0.00000000
 90.40000000   4.66200000   0.00000000
 90.50000000   4.66200000   0.00000000
 90.60000000   4.66200000   0.00000000
 90.70000000   4.66200000   0.00000000
 90.80000000   4.66200000   0.00000000
 90.90000000   4.66200000   0.00000000
 91.00000000   4.66200000   0.00000000
 91.10000000   4.66200000   0.00000000
 91.20000000   4.66200000   0.00000000
 91.30000000   4.66200000   0.00000000
 91.40000000   4.66200000   0.00000000
 91.50000000   4.66200000   0.00000000
 91.60000000   4.66200000   0.00000000
 91.70000000   4.66200000   0.00000000
 91.80000000   4.66200000   0.00000000
 91.90000000   4.66200000   0.00000000
 92.00000000   4.66200000   0.00000000
 92.10000000   4.66200000   0.00000000
 92.20000000   4.66200000   0.00000000
 92.30000000   4.66200000   0.00000000
 92.40000000   4.66200000   0.00000000
 92.50000000   4.66200000   0.00000000
 92.60000000   4.66200000   0.00000000
 92.70000000   4.66200000   0.00000000
 92.80000000   4.66200000   0.00000000
 92.90000000   4.66200000   0.00000000
 93.00000000   4.66200000   0.00000000
 93.10000000   4.66200000   0.00000000
 93.20000000   4.66200000   0.00000000
 93.30000000   4.66200000   0.00000000
 93.40000000   4.66200000   0.00000000
 93.50000000   4.66200000   0.00000000
 93.60000000   4.66200000   0.00000000
 93.70000000   4.66200000   0.00000000
 93.80000000   4.66200000   0.00000000
 93.90000000   4.66200000   0.00000000
 94.00000000   4.66200000   0.00000000
 94.10000000   4.66200000   0.00000000
 94.20000000   4.66200000   0.00000000
 94.30000000   4.66200000   0.00000000
 94.40000000   4.66200000   0.00000000
 94.50000000   4.66200000   0.00000000
 94.60000000   4.66200000   0.00000000
 94.70000000   4.66200000   0.00000000
 94.80000000   4.66200000   0.00000000
 94.90000000   4.66200000   0.00000000
 95.00000000   4.66200000   0.00000000
 95.10000000   4.66200000   0.00000000
 95.20000000   4.66200000   0.00000000
 95.30000000   4.66200000   0.00000000
 95.40000000   4.66200000   0.00000000
 95.50000000   4.66200000   0.00000000
 95.60000000   4.66200000   0.00000000
 95.70000000   4.66200000   0.00000000
 95.80000000   4.66200000   0.00000000
 95.90000000   4.66200000   0.00000000
 96.00000000   4.66200000   0.00000000
 96.10000000   4.66200000   0.00000000
 96.20000000   4.66200000   0.00000000
 96.30000000   4.66200000   0.00000000
 96.40000000   4.66200000   0.00000000
 96.50000000   4.66200000   0.00000000
 96.60000000   4.66200000   0.00000000
 96.70000000   4.66200000   0.00000000
 96.80000000   4.66200000   0.00000000
 96.90000000   4.66200000   0.00000000
 97.00000000   4.66200000   0.00000000
 97.10000000   4.66200000   0.00000000
 97.20000000   4.66200000   0.00000000
 97.30000000   4.66200000   0.00000000
 97.40000000   4.66200000   0.00000000
 97.50000000   4.66200000   0.00000000
 97.60000000   4.66200000   0.00000000
 97.70000000   4.66200000   0.00000000
 97.80000000   4.66200000   0.00000000
 97.90000000   4.66200000   0.00000000
 98.00000000   4.66200000   0.00000000
 98.10000000   4.66200000   0.00000000
 98.20000000   4.66200000   0.00000000
 98.30000000   4.66200000   0.00000000
 98.40000000   4.66200000   0.00000000
 98.50000000   4.66200000   0.00000000
 98.60000000   4.66200000   0.00000000
 98.70000000   4.66200000   0.00000000
 98.80000000   4.66200000   0.00000000
 98.90000000   4.66200000   0.00000000
 99.00000000   4.66200000   0.00000000
 99.10000000   4.66200000   0.00000000
 99.20000000   4.66200000   0.00000000
 99.30000000   4.66200000   0.00000000
 99.40000000   4.66200000   0.00000000
 99.50000000   4.66200000   0.00000000
 99.60000000   4.66200000   0.00000000
 99.70000000   4.66200000   0.00000000
 99.80000000   4.66200000   0.00000000
 99.90000000   4.66200000   0.00000000
100.00000000   4.66200000   0.00000000
100.10000000   4.66200000   0.00000000
100.20000000   4.66200000   0.00000000
100.30000000   4.66200000   0.00000000
100.40000000   4.66200000   0.00000000
100.50000000   4.66200000   0.00000000
100.60000000   4.66200000   0.00000000
100.70000000   4.66200000   0.00000000
100.80000000   4.66200000   0.00000000
100.90000000   4.66200000   0.00000000
101.00000000   4.66200000   0.00000000
101.10000000   4.66200000   0.00000000
101.20000000   4.66200000   0.00000000
101.30000000   4.66200000   0.00000000
101.40000000   4.66200000   0.00000000
101.50000000   4.66200000   0.00000000
101.60000000   4.66200000   0.00000000
101.70000000   4.66200000   0.00000000
101.80000000   4.66200000   0.00000000
101.90000000   4.66200000   0.00000000
102.00000000   4.66200000   0.00000000
102.10000000   4.66200000   0.00000000
102.20000000   4.66200000   0.00000000
102.30000000   4.66200000   0.00000000
102.40000000   4.66200000   0.00000000
102.50000000   4.66200000   0.00000000
102.60000000   4.66200000   0.00000000
102.70000000   4.66200000   0.00000000
102.80000000   4.66200000   0.00000000
102.90000000   4.66200000   0.00000000
103.00000000   4.66200000   0.00000000
103.10000000   4.66200000   0.00000000
103.20000000   4.66200000   0.00000000
103.30000000   4.66200000   0.00000000
103.40000000   4.66200000   0.00000000
103.50000000   4.66200000   0.00000000
103.60000000   4.66200000   0.00000000
103.70000000   4.66200000   0.00000000
103.80000000   4.66200000   0.00000000
103.90000000   4.66200000   0.00000000
104.00000000   4.66200000   0.00000000
104.10000000   4.66200000   0.00000000
104.20000000   4.66200000   0.00000000
104.30000000   4.66200000   0.00000000
104.40000000   4.66200000   0.00000000
104.50000000   4.66200000   0.00000000
104.60000000   4.66200000   0.00000000
104.70000000   4.66200000   0.00000000
104.80000000   4.66200000   0.00000000
104.90000000   4.66200000   0.00000000
105.00000000   4.66200000   0.00000000
105.10000000   4.66200000   0.00000000
105.20000000   4.66200000   0.00000000
105.30000000   4.66200000   0.00000000
105.40000000   4.66200000   0.00000000
105.50000000   4.66200000   0.00000000
105.60000000   4.66200000   0.00000000
105.70000000   4.66200000   0.00000000
105.80000000   4.66200000   0.00000000
105.90000000   4.66200000   0.00000000
106.00000000   4.66200000   0.00000000
106.10000000   4.66200000   0.00000000
106.20000000   4.66200000   0.00000000
106.30000000   4.66200000   0.00000000
106.40000000   4.66200000   0.00000000
106.50000000   4.66200000   0.00000000
106.60000000   4.66200000   0.00000000
106.70000000   4.66200000   0.00000000
106.80000000   4.66200000   0.00000000
106.90000000   4.66200000   0.00000000
107.00000000   4.66200000   0.00000000
107.10000000   4.66200000   0.00000000
107.20000000   4.66200000   0.00000000
107.30000000   4.66200000   0.00000000
107.40000000   4.66200000   0.00000000
107.50000000   4.66200000   0.00000000
107.60000000   4.66200000   0.00000000
107.70000000   4.66200000   0.00000000
107.80000000   4.66200000   0.00000000
107.90000000   4.66200000   0.00000000
108.00000000   4.66200000   0.00000000
108.10000000   4.66200000   0.00000000
108.20000000   4.66200000   0.00000000
108.30000000   4.66200000   0.00000000
108.40000000   4.66200000   0.00000000
108.50000000   4.66200000   0.00000000
108.60000000   4.66200000   0.00000000
108.70000000   4.66200000   0.00000000
108.80000000   4.66200000   0.00000000
108.90000000   4.66200000   0.00000000
109.00000000   4.66200000   0.00000000
109.10000000   4.66200000   0.00000000
109.20000000   4.66200000   0.00000000
109.30000000   4.66200000   0.00000000
109.40000000   4.66200000   0.00000000
109.50000000   4.66200000   0.00000000
109.60000000   4.66200000   0.00000000
109.70000000   4.66200000   0.00000000
109.80000000   4.66200000   0.00000000
109.90000000   4.66200000   0.00000000
110.00000000   4.66200000   0.00000000
110.10000000   4.66200000   0.00000000
110.20000000   4.66200000   0.00000000
110.30000000   4.66200000   0.00000000
110.40000000   4.66200000   0.00000000
110.50000000   4.66200000   0.00000000
110.60000000   4.66200000   0.00000000
110.70000000   4.66200000   0.00000000
110.80000000   4.66200000   0.00000000
110.90000000   4.66200000   0.00000000
111.00000000   4.66200000   0.00000000
111.10000000   4.66200000   0.00000000
111.20000000   4.66200000   0.00000000
111.30000000   4.66200000   0.00000000
111.40000000   4.66200000   0.00000000
111.50000000   4.66200000   0.00000000
111.60000000   4.66200000   0.00000000
111.70000000   4.66200000   0.00000000
111.80000000   4.66200000   0.00000000
111.90000000   4.66200000   0.00000000
112.00000000   4.66200000   0.00000000
112.10000000   4.66200000   0.00000000
112.20000000   4.66200000   0.00000000
112.30000000   4.66200000   0.00000000
112.40000000   4.66200000   0.00000000
112.50000000   4.66200000   0.00000000
112.60000000   4.66200000   0.00000000
112.70000000   4.66200000   0.00000000
112.80000000   4.66200000   0.00000000
112.90000000   4.66200000   0.00000000
113.00000000   4.66200000   0.00000000
113.10000000   4.66200000   0.00000000
113.20000000   4.66200000   0.00000000
113.30000000   4.66200000   0.00000000
113.40000000   4.66200000   0.00000000
113.50000000   4.66200000   0.00000000
113.60000000   4.66200000   0.00000000
113.70000000   4.66200000   0.00000000
113.80000000   4.66200000   0.00000000
113.90000000   4.66200000   0.00000000
114.00000000   4.66200000   0.00000000
114.10000000   4.66200000   0.00000000
114.20000000   4.66200000   0.00000000
114.30000000   4.66200000   0.00000000
114.40000000   4.66200000   0.00000000
114.50000000   4.66200000   0.00000000
114.60000000   4.66200000   0.00000000
114.70000000   4.66200000   0.00000000
114.80000000   4.66200000   0.00000000
114.90000000   4.66200000   0.00000000
115.00000000   4.66200000   0.00000000
115.10000000   4.66200000   0.00000000
115.20000000   4.66200000   0.00000000
115.30000000   4.66200000   0.00000000
115.40000000   4.66200000   0.00000000
115.50000000   4.66200000   0.00000000
115.60000000   4.66200000   0.00000000
115.70000000   4.66200000   0.00000000
115.80000000   4.66200000   0.00000000
115.90000000   4.66200000   0.00000000
116.00000000   4.66200000   0.00000000
116.10000000   4.66200000   0.00000000
116.20000000   4.66200000   0.00000000
116.30000000   4.66200000   0.00000000
116.40000000   4.66200000   0.00000000
116.50000000   4.66200000   0.00000000
116.60000000   4.66200000   0.00000000
116.70000000   4.66200000   0.00000000
116.80000000   4.66200000   0.00000000
116.90000000   4.66200000   0.00000000
117.00000000   4.66200000   0.00000000
117.10000000   4.66200000   0.00000000
117.20000000   4.66200000   0.00000000
117.30000000   4.66200000   0.00000000
117.40000000   4.66200000   0.00000000
117.50000000   4.66200000   0.00000000
117.60000000   4.66200000   0.00000000
117.70000000   4.66200000   0.00000000
117.80000000   4.66200000   0.00000000
117.90000000   4.66200000   0.00000000
118.00000000   4.66200000   0.00000000
118.10000000   4.66200000   0.00000000
118.20000000   4.66200000   0.00000000
118.30000000   4.66200000   0.00000000
118.40000000   4.66200000   0.00000000
118.50000000   4.66200000   0.00000000
118.60000000   4.66200000   0.00000000
118.70000000   4.66200000   0.00000000
118.80000000   4.66200000   0.00000000
118.90000000   4.66200000   0.00000000
119.00000000   4.66200000   0.00000000
119.10000000   4.66200000   0.00000000
119.20000000   4.66200000   0.00000000
119.30000000   4.66200000   0.00000000
119.40000000   4.66200000   0.00000000
119.50000000   4.66200000   0.00000000
119.60000000   4.66200000   0.00000000
119.70000000   4.66200000   0.00000000
119.80000000   4.66200000   0.00000000
119.90000000   4.66200000   0.00000000
120.00000000   4.66200000   0.00000000
120.10000000   4.66200000   0.00000000
120.20000000   4.66200000   0.00000000
120.30000000   4.66200000   0.00000000
120.40000000   4.66200000   0.00000000
120.50000000   4.66200000   0.00000000
120.60000000   4.66200000   0.00000000
120.70000000   4.66200000   0.00000000
120.80000000   4.66200000   0.00000000
120.90000000   4.66200000   0.00000000
121.00000000   4.66200000   0.00000000
121.10000000   4.66200000   0.00000000
121.20000000   4.66200000   0.00000000
121.30000000   4.66200000   0.00000000
121.40000000   4.66200000   0.00000000
121.50000000   4.66200000   0.00000000
121.60000000   4.66200000   0.00000000
121.70000000   4.66200000   0.00000000
121.80000000   4.66200000   0.00000000
121.90000000   4.66200000   0.00000000
122.00000000   4.66200000   0.00000000
122.10000000   4.66200000   0.00000000
122.20000000   4.66200000   0.00000000
122.30000000   4.66200000   0.00000000
122.40000000   4.66200000   0.00000000
122.50000000   4.66200000   0.00000000
122.60000000   4.66200000   0.00000000
122.70000000   4.66200000   0.00000000
122.80000000   4.66200000   0.00000000
122.90000000   4.66200000   0.00000000
123.00000000   4.66200000   0.00000000
123.10000000   4.66200000   0.00000000
123.20000000   4.66200000   0.00000000
123.30000000   4.66200000   0.00000000
123.40000000   4.66200000   0.00000000
123.50000000   4.66200000   0.00000000
123.60000000   4.66200000   0.00000000
123.70000000   4.66200000   0.00000000
123.80000000   4.66200000   0.00000000
123.90000000   4.66200000   0.00000000
124.00000000   4.66200000   0.00000000
124.10000000   4.66200000   0.00000000
124.20000000   4.66200000   0.00000000
124.30000000   4.66200000   0.00000000
124.40000000   4.66200000   0.00000000
124.50000000   4.66200000   0.00000000
124.60000000   4.66200000   0.00000000
124.70000000   4.66200000   0.00000000
124.80000000   4.66200000   0.00000000
124.90000000   4.66200000   0.00000000
125.00000000   4.66200000   0.00000000
125.10000000   4.66200000   0.00000000
125.20000000   4.66200000   0.00000000
125.30000000   4.66200000   0.00000000
125.40000000   4.66200000   0.00000000
125.50000000   4.66200000   0.00000000
125.60000000   4.66200000   0.00000000
125.70000000   4.66200000   0.00000000
125.80000000   4.66200000   0.00000000
125.90000000   4.66200000   0.00000000
126.00000000   4.66200000   0.00000000
126.10000000   4.66200000   0.00000000
126.20000000   4.66200000   0.00000000
126.30000000   4.66200000   0.00000000
126.40000000   4.66200000   0.00000000
126.50000000   4.66200000   0.00000000
126.60000000   4.66200000   0.00000000
126.70000000   4.66200000   0.00000000
126.80000000   4.66200000   0.00000000
126.90000000   4.66200000   0.00000000
127.00000000   4.66200000   0.00000000
127.10000000   4.66200000   0.00000000
127.20000000   4.66200000   0.00000000
127.30000000   4.66200000   0.00000000
127.40000000   4.66200000   0.00000000
127.50000000   4.66200000   0.00000000
127.60000000   4.66200000   0.00000000
127.70000000   4.66200000   0.00000000
127.80000000   4.66200000   0.00000000
127.90000000   4.66200000   0.00000000
128.00000000   4.66200000   0.00000000
128.10000000   4.66200000   0.00000000
128.20000000   4.66200000   0.00000000
128.30000000   4.66200000   0.00000000
128.40000000   4.66200000   0.00000000
128.50000000   4.66200000   0.00000000
128.60000000   4.66200000   0.00000000
128.70000000   4.66200000   0.00000000
128.80000000   4.66200000   0.00000000
128.90000000   4.66200000   0.00000000
129.00000000   4.66200000   0.00000000
129.10000000   4.66200000   0.00000000
129.20000000   4.66200000   0.00000000
129.30000000   4.66200000   0.00000000
129.40000000   4.66200000   0.00000000
129.50000000   4.66200000   0.00000000
129.60000000   4.66200000   0.00000000
129.70000000   4.66200000   0.00000000
129.80000000   4.66200000   0.00000000
129.90000000   4.66200000   0.00000000
130.00000000   4.66200000   0.00000000
130.10000000   4.66200000   0.00000000
130.20000000   4.66200000   0.00000000
130.30000000   4.66200000   0.00000000
130.40000000   4.66200000   0.00000000
130.50000000   4.66200000   0.00000000
130.60000000   4.66200000   0.00000000
130.70000000   4.66200000   0.00000000
130.80000000   4.66200000   0.00000000
130.90000000   4.66200000   0.00000000
131.00000000   4.66200000   0.00000000
131.10000000   4.66200000   0.00000000
131.20000000   4.66200000   0.00000000
131.30000000   4.66200000   0.00000000
131.40000000   4.66200000   0.00000000
131.50000000   4.66200000   0.00000000
131.60000000   4.66200000   0.00000000
131.70000000   4.66200000   0.00000000
131.80000000   4.66200000   0.00000000
131.90000000   4.66200000   0.00000000
132.00000000   4.66200000   0.00000000
132.10000000   4.66200000   0.00000000
132.20000000   4.66200000   0.00000000
132.30000000   4.66200000   0.00000000
132.40000000   4.66200000   0.00000000
132.50000000   4.66200000   0.00000000
132.60000000   4.66200000   0.00000000
132.70000000   4.66200000   0.00000000
132.80000000   4.66200000   0.00000000
132.90000000   4.66200000   0.00000000
133.00000000   4.66200000   0.00000000
133.10000000   4.66200000   0.00000000
133.20000000   4.66200000   0.00000000
133.30000000   4.66200000   0.00000000
133.40000000   4.66200000   0.00000000
133.50000000   4.66200000   0.00000000
133.60000000   4.66200000   0.00000000
133.70000000   4.66200000   0.00000000
133.80000000   4.66200000   0.00000000
133.90000000   4.66200000   0.00000000
134.00000000   4.66200000   0.00000000
134.10000000   4.66200000   0.00000000
134.20000000   4.66200000   0.00000000
134.30000000   4.66200000   0.00000000
134.40000000   4.66200000   0.00000000
134.50000000   4.66200000   0.00000000
134.60000000   4.66200000   0.00000000
134.70000000   4.66200000   0.00000000
134.80000000   4.66200000   0.00000000
134.90000000   4.66200000   0.00000000
135.00000000   4.66200000   0.00000000
135.10000000   4.66200000   0.00000000
135.20000000   4.66200000   0.00000000
135.30000000   4.66200000   0.00000000
135.40000000   4.66200000   0.00000000
135.50000000   4.66200000   0.00000000
135.60000000   4.66200000   0.00000000
135.70000000   4.66200000   0.00000000
135.80000000   4.66200000   0.00000000
135.90000000   4.66200000   0.00000000
136.00000000   4.66200000   0.00000000
136.10000000   4.66200000   0.00000000
136.20000000   4.66200000   0.00000000
136.30000000   4.66200000   0.00000000
136.40000000   4.66200000   0.00000000
136.50000000   4.66200000   0.00000000
136.60000000   4.66200000   0.00000000
136.70000000   4.66200000   0.00000000
136.80000000   4.66200000   0.00000000
136.90000000   4.66200000   0.00000000
137.00000000   4.66200000   0.00000000
137.10000000   4.66200000   0.00000000
137.20000000   4.66200000   0.00000000
137.30000000   4.66200000   0.00000000
137.40000000   4.66200000   0.00000000
137.50000000   4.66200000   0.00000000
137.60000000   4.66200000   0.00000000
137.70000000   4.66200000   0.00000000
137.80000000   4.66200000   0.00000000
137.90000000   4.66200000   0.00000000
138.00000000   4.66200000   0.00000000
138.10000000   4.66200000   0.00000000
138.20000000   4.66200000   0.00000000
138.30000000   4.66200000   0.00000000
138.40000000   4.66200000   0.00000000
138.50000000   4.66200000   0.00000000
138.60000000   4.66200000   0.00000000
138.70000000   4.66200000   0.00000000
138.80000000   4.66200000   0.00000000
138.90000000   4.66200000   0.00000000
139.00000000   4.66200000   0.00000000
139.10000000   4.66200000   0.00000000
139.20000000   4.66200000   0.00000000
139.30000000   4.66200000   0.00000000
139.40000000   4.66200000   0.00000000
139.50000000   4.66200000   0.00000000
139.60000000   4.66200000   0.00000000
139.70000000   4.66200000   0.00000000
139.80000000   4.66200000   0.00000000
139.90000000   4.66200000   0.00000000
140.00000000   4.66200000   0.00000000
140.10000000   4.66200000   0.00000000
140.20000000   4.66200000   0.00000000
140.30000000   4.66200000   0.00000000
140.40000000   4.66200000   0.00000000
140.50000000   4.66200000   0.00000000
140.60000000   4.66200000   0.00000000
140.70000000   4.66200000   0.00000000
140.80000000   4.66200000   0.00000000
140.90000000   4.66200000   0.00000000
141.00000000   4.66200000   0.00000000
141.10000000   4.66200000   0.00000000
141.20000000   4.66200000   0.00000000
141.30000000   4.66200000   0.00000000
141.40000000   4.66200000   0.00000000
141.50000000   4.66200000   0.00000000
141.60000000   4.66200000   0.00000000
141.70000000   4.66200000   0.00000000
141.80000000   4.66200000   0.00000000
141.90000000   4.66200000   0.00000000
142.00000000   4.66200000   0.00000000
142.10000000   4.66200000   0.00000000
142.20000000   4.66200000   0.00000000
142.30000000   4.66200000   0.00000000
142.40000000   4.66200000   0.00000000
142.50000000   4.66200000   0.00000000
142.60000000   4.66200000   0.00000000
142.70000000   4.66200000   0.00000000
142.80000000   4.66200000   0.00000000
142.90000000   4.66200000   0.00000000
143.00000000   4.66200000   0.00000000
143.10000000   4.66200000   0.00000000
143.20000000   4.66200000   0.00000000
143.30000000   4.66200000   0.00000000
143.40000000   4.66200000   0.00000000
143.50000000   4.66200000   0.00000000
143.60000000   4.66200000   0.00000000
143.70000000   4.66200000   0.00000000
143.80000000   4.66200000   0.00000000
143.90000000   4.66200000   0.00000000
144.00000000   4.66200000   0.00000000
144.10000000   4.66200000   0.00000000
144.20000000   4.66200000   0.00000000
144.30000000   4.66200000   0.00000000
144.40000000   4.66200000   0.00000000
144.50000000   4.66200000   0.00000000
144.60000000   4.66200000   0.00000000
144.70000000   4.66200000   0.00000000
144.80000000   4.66200000   0.00000000
144.90000000   4.66200000   0.00000000
145.00000000   4.66200000   0.00000000
145.10000000   4.66200000   0.00000000
145.20000000   4.66200000   0.00000000
145.30000000   4.66200000   0.00000000
145.40000000   4.66200000   0.00000000
145.50000000   4.66200000   0.00000000
145.60000000   4.66200000   0.00000000
145.70000000   4.66200000   0.00000000
145.80000000   4.66200000   0.00000000
145.90000000   4.66200000   0.00000000
146.00000000   4.66200000   0.00000000
146.10000000   4.66200000   0.00000000
146.20000000   4.66200000   0.00000000
146.30000000   4.66200000   0.00000000
146.40000000   4.66200000   0.00000000
146.50000000   4.66200000   0.00000000
146.60000000   4.66200000   0.00000000
146.70000000   4.66200000   0.00000000
146.80000000   4.66200000   0.00000000
146.90000000   4.66200000   0.00000000
147.00000000   4.66200000   0.00000000
147.10000000   4.66200000   0.00000000
147.20000000   4.66200000   0.00000000
147.30000000   4.66200000   0.00000000
147.40000000   4.66200000   0.00000000
147.50000000   4.66200000   0.00000000
147.60000000   4.66200000   0.00000000
147.70000000   4.66200000   0.00000000
147.80000000   4.66200000   0.00000000
147.90000000   4.66200000   0.00000000
148.00000000   4.66200000   0.00000000
148.10000000   4.66200000   0.00000000
148.20000000   4.66200000   0.00000000
148.30000000   4.66200000   0.00000000
148.40000000   4.66200000   0.00000000
148.50000000   4.66200000   0.00000000
148.60000000   4.66200000   0.00000000
148.70000000   4.66200000   0.00000000
148.80000000   4.66200000   0.00000000
148.90000000   4.66200000   0.00000000
149.00000000   4.66200000   0.00000000
149.10000000   4.66200000   0.00000000
149.20000000   4.66200000   0.00000000
149.30000000   4.66200000   0.00000000
149.40000000   4.66200000   0.00000000
149.50000000   4.66200000   0.00000000
149.60000000   4.66200000   0.00000000
149.70000000   4.66200000   0.00000000
149.80000000   4.66200000   0.00000000
149.90000000   4.66200000   0.00000000
150.00000000   4.66200000   0.00000000
150.10000000   4.66200000   0.00000000
150.20000000   4.66200000   0.00000000
150.30000000   4.66200000   0.00000000
150.40000000   4.66200000   0.00000000
150.50000000   4.66200000   0.00000000
150.60000000   4.66200000   0.00000000
150.70000000   4.66200000   0.00000000
150.80000000   4.66200000   0.00000000
150.90000000   4.66200000   0.00000000
151.00000000   4.66200000   0.00000000
151.10000000   4.66200000   0.00000000
151.20000000   4.66200000   0.00000000
151.30000000   4.66200000   0.00000000
151.40000000   4.66200000   0.00000000
151.50000000   4.66200000   0.00000000
151.60000000   4.66200000   0.00000000
151.70000000   4.66200000   0.00000000
151.80000000   4.66200000   0.00000000
151.90000000   4.66200000   0.00000000
152.00000000   4.66200000   0.00000000
152.10000000   4.66200000   0.00000000
152.20000000   4.66200000   0.00000000
152.30000000   4.66200000   0.00000000
152.40000000   4.66200000   0.00000000
152.50000000   4.66200000   0.00000000
152.60000000   4.66200000   0.00000000
152.70000000   4.66200000   0.00000000
152.80000000   4.66200000   0.00000000
152.90000000   4.66200000   0.00000000
153.00000000   4.66200000   0.00000000
153.10000000   4.66200000   0.00000000
153.20000000   4.66200000   0.00000000
153.30000000   4.66200000   0.00000000
153.40000000   4.66200000   0.00000000
153.50000000   4.66200000   0.00000000
153.60000000   4.66200000   0.00000000
153.70000000   4.66200000   0.00000000
153.80000000   4.66200000   0.00000000
153.90000000   4.66200000   0.00000000
154.00000000   4.66200000   0.00000000
154.10000000   4.66200000   0.00000000
154.20000000   4.66200000   0.00000000
154.30000000   4.66200000   0.00000000
154.40000000   4.66200000   0.00000000
154.50000000   4.66200000   0.00000000
154.60000000   4.66200000   0.00000000
154.70000000   4.66200000   0.00000000
154.80000000   4.66200000   0.00000000
154.90000000   4.66200000   0.00000000
155.00000000   4.66200000   0.00000000
155.10000000   4.66200000   0.00000000
155.20000000   4.66200000   0.00000000
155.30000000   4.66200000   0.00000000
155.40000000   4.66200000   0.00000000
155.50000000   4.66200000   0.00000000
155.60000000   4.66200000   0.00000000
155.70000000   4.66200000   0.00000000
155.80000000   4.66200000   0.00000000
155.90000000   4.66200000   0.00000000
156.00000000   4.66200000   0.00000000
156.10000000   4.66200000   0.00000000
156.20000000   4.66200000   0.00000000
156.30000000   4.66200000   0.00000000
156.40000000   4.66200000   0.00000000
156.50000000   4.66200000   0.00000000
156.60000000   4.66200000   0.00000000
156.70000000   4.66200000   0.00000000
156.80000000   4.66200000   0.00000000
156.90000000   4.66200000   0.00000000
157.00000000   4.66200000   0.00000000
157.10000000   4.66200000   0.00000000
157.20000000   4.66200000   0.00000000
157.30000000   4.66200000   0.00000000
157.40000000   4.66200000   0.00000000
157.50000000   4.66200000   0.00000000
157.60000000   4.66200000   0.00000000
157.70000000   4.66200000   0.00000000
157.80000000   4.66200000   0.00000000
157.90000000   4.66200000   0.00000000
158.00000000   4.66200000   0.00000000
158.10000000   4.66200000   0.00000000
158.20000000   4.66200000   0.00000000
158.30000000   4.66200000   0.00000000
158.40000000   4.66200000   0.00000000
158.50000000   4.66200000   0.00000000
158.60000000   4.66200000   0.00000000
158.70000000   4.66200000   0.00000000
158.80000000   4.66200000   0.00000000
158.90000000   4.66200000   0.00000000
159.00000000   4.66200000   0.00000000
159.10000000   4.66200000   0.00000000
159.20000000   4.66200000   0.00000000
159.30000000   4.66200000   0.00000000
159.40000000   4.66200000   0.00000000
159.50000000   4.66200000   0.00000000
159.60000000   4.66200000   0.00000000
159.70000000   4.66200000   0.00000000
159.80000000   4.66200000   0.00000000
159.90000000   4.66200000   0.00000000
160.00000000   4.66200000   0.00000000
160.10000000   4.66200000   0.00000000
160.20000000   4.66200000   0.00000000
160.30000000   4.66200000   0.00000000
160.40000000   4.66200000   0.00000000
160.50000000   4.66200000   0.00000000
160.60000000   4.66200000   0.00000000
160.70000000   4.66200000   0.00000000
160.80000000   4.66200000   0.00000000
160.90000000   4.66200000   0.00000000
161.00000000   4.66200000   0.00000000
161.10000000   4.66200000   0.00000000
161.20000000   4.66200000   0.00000000
161.30000000   4.66200000   0.00000000
161.40000000   4.66200000   0.00000000
161.50000000   4.66200000   0.00000000
161.60000000   4.66200000   0.00000000
161.70000000   4.66200000   0.00000000
161.80000000   4.66200000   0.00000000
161.90000000   4.66200000   0.00000000
162.00000000   4.66200000   0.00000000
162.10000000   4.66200000   0.00000000
162.20000000   4.66200000   0.00000000
162.30000000   4.66200000   0.00000000
162.40000000   4.66200000   0.00000000
162.50000000   4.66200000   0.00000000
162.60000000   4.66200000   0.00000000
162.70000000   4.66200000   0.00000000
162.80000000   4.66200000   0.00000000
162.90000000   4.66200000   0.00000000
163.00000000   4.66200000   0.00000000
163.10000000   4.66200000   0.00000000
163.20000000   4.66200000   0.00000000
163.30000000   4.66200000   0.00000000
163.40000000   4.66200000   0.00000000
163.50000000   4.66200000   0.00000000
163.60000000   4.66200000   0.00000000
163.70000000   4.66200000   0.00000000
163.80000000   4.66200000   0.00000000
163.90000000   4.66200000   0.00000000
164.00000000   4.66200000   0.00000000
164.10000000   4.66200000   0.00000000
164.20000000   4.66200000   0.00000000
164.30000000   4.66200000   0.00000000
164.40000000   4.66200000   0.00000000
164.50000000   4.66200000   0.00000000
164.60000000   4.66200000   0.00000000
164.70000000   4.66200000   0.00000000
164.80000000   4.66200000   0.00000000
164.90000000   4.66200000   0.00000000
165.00000000   4.66200000   0.00000000
165.10000000   4.66200000   0.00000000
165.20000000   4.66200000   0.00000000
165.30000000   4.66200000   0.00000000
165.40000000   4.66200000   0.00000000
165.50000000   4.66200000   0.00000000
165.60000000   4.66200000   0.00000000
165.70000000   4.66200000   0.00000000
165.80000000   4.66200000   0.00000000
165.90000000   4.66200000   0.00000000
166.00000000   4.66200000   0.00000000
166.10000000   4.66200000   0.00000000
166.20000000   4.66200000   0.00000000
166.30000000   4.66200000   0.00000000
166.40000000   4.66200000   0.00000000
166.50000000   4.66200000   0.00000000
166.60000000   4.66200000   0.00000000
166.70000000   4.66200000   0.00000000
166.80000000   4.66200000   0.00000000
166.90000000   4.66200000   0.00000000
167.00000000   4.66200000   0.00000000
167.10000000   4.66200000   0.00000000
167.20000000   4.66200000   0.00000000
167.30000000   4.66200000   0.00000000
167.40000000   4.66200000   0.00000000
167.50000000   4.66200000   0.00000000
167.60000000   4.66200000   0.00000000
167.70000000   4.66200000   0.00000000
167.80000000   4.66200000   0.00000000
167.90000000   4.66200000   0.00000000
168.00000000   4.66200000   0.00000000
168.10000000   4.66200000   0.00000000
168.20000000   4.66200000   0.00000000
168.30000000   4.66200000   0.00000000
168.40000000   4.66200000   0.00000000
168.50000000   4.66200000   0.00000000
168.60000000   4.66200000   0.00000000
168.70000000   4.66200000   0.00000000
168.80000000   4.66200000   0.00000000
168.90000000   4.66200000   0.00000000
169.00000000   4.66200000   0.00000000
169.10000000   4.66200000   0.00000000
169.20000000   4.66200000   0.00000000
169.30000000   4.66200000   0.00000000
169.40000000   4.66200000   0.00000000
169.50000000   4.66200000   0.00000000
169.60000000   4.66200000   0.00000000
169.70000000   4.66200000   0.00000000
169.80000000   4.66200000   0.00000000
169.90000000   4.66200000   0.00000000
170.00000000   4.66200000   0.00000000
170.10000000   4.66200000   0.00000000
170.20000000   4.66200000   0.00000000
170.30000000   4.66200000   0.00000000
170.40000000   4.66200000   0.00000000
170.50000000   4.66200000   0.00000000
170.60000000   4.66200000   0.00000000
170.70000000   4.66200000   0.00000000
170.80000000   4.66200000   0.00000000
170.90000000   4.66200000   0.00000000
171.00000000   4.66200000   0.00000000
171.10000000   4.66200000   0.00000000
171.20000000   4.66200000   0.00000000
171.30000000   4.66200000   0.00000000
171.40000000   4.66200000   0.00000000
171.50000000   4.66200000   0.00000000
171.60000000   4.66200000   0.00000000
171.70000000   4.66200000   0.00000000
171.80000000   4.66200000   0.00000000
171.90000000   4.66200000   0.00000000
172.00000000   4.66200000   0.00000000
172.10000000   4.66200000   0.00000000
172.20000000   4.66200000   0.00000000
172.30000000   4.66200000   0.00000000
172.40000000   4.66200000   0.00000000
172.50000000   4.66200000   0.00000000
172.60000000   4.66200000   0.00000000
172.70000000   4.66200000   0.00000000
172.80000000   4.66200000   0.00000000
172.90000000   4.66200000   0.00000000
173.00000000   4.66200000   0.00000000
173.10000000   4.66200000   0.00000000
173.20000000   4.66200000   0.00000000
173.30000000   4.66200000   0.00000000
173.40000000   4.66200000   0.00000000
173.50000000   4.66200000   0.00000000
173.60000000   4.66200000   0.00000000
173.70000000   4.66200000   0.00000000
173.80000000   4.66200000   0.00000000
173.90000000   4.66200000   0.00000000
174.00000000   4.66200000   0.00000000
174.10000000   4.66200000   0.00000000
174.20000000   4.66200000   0.00000000
174.30000000   4.66200000   0.00000000
174.40000000   4.66200000   0.00000000
174.50000000   4.66200000   0.00000000
174.60000000   4.66200000   0.00000000
174.70000000   4.66200000   0.00000000
174.80000000   4.66200000   0.00000000
174.90000000   4.66200000   0.00000000
175.00000000   4.66200000   0.00000000
175.10000000   4.66200000   0.00000000
175.20000000   4.66200000   0.00000000
175.30000000   4.66200000   0.00000000
175.40000000   4.66200000   0.00000000
175.50000000   4.66200000   0.00000000
175.60000000   4.66200000   0.00000000
175.70000000   4.66200000   0.00000000
175.80000000   4.66200000   0.00000000
175.90000000   4.66200000   0.00000000
176.00000000   4.66200000   0.00000000
176.10000000   4.66200000   0.00000000
176.20000000   4.66200000   0.00000000
176.30000000   4.66200000   0.00000000
176.40000000   4.66200000   0.00000000
176.50000000   4.66200000   0.00000000
176.60000000   4.66200000   0.00000000
176.70000000   4.66200000   0.00000000
176.80000000   4.66200000   0.00000000
176.90000000   4.66200000   0.00000000
177.00000000   4.66200000   0.00000000
177.10000000   4.66200000   0.00000000
177.20000000   4.66200000   0.00000000
177.30000000   4.66200000   0.00000000
177.40000000   4.66200000   0.00000000
177.50000000   4.66200000   0.00000000
177.60000000   4.66200000   0.00000000
177.70000000   4.66200000   0.00000000
177.80000000   4.66200000   0.00000000
177.90000000   4.66200000   0.00000000
178.00000000   4.66200000   0.00000000
178.10000000   4.66200000   0.00000000
178.20000000   4.66200000   0.00000000
178.30000000   4.66200000   0.00000000
178.40000000   4.66200000   0.00000000
178.50000000   4.66200000   0.00000000
178.60000000   4.66200000   0.00000000
178.70000000   4.66200000   0.00000000
178.80000000   4.66200000   0.00000000
178.90000000   4.66200000   0.00000000
179.00000000   4.66200000   0.00000000
179.10000000   4.66200000   0.00000000
179.20000000   4.66200000   0.00000000
179.30000000   4.66200000   0.00000000
179.40000000   4.66200000   0.00000000
179.50000000   4.66200000   0.00000000
179.60000000   4.66200000   0.00000000
179.70000000   4.66200000   0.00000000
179.80000000   4.66200000   0.00000000
179.90000000   4.66200000   0.00000000
180.00000000   4.66200000   0.00000000
180.10000000   4.66200000   0.00000000
180.20000000   4.66200000   0.00000000
180.30000000   4.66200000   0.00000000
180.40000000   4.66200000   0.00000000
180.50000000   4.66200000   0.00000000
180.60000000   4.66200000   0.00000000
180.70000000   4.66200000   0.00000000
180.80000000   4.66200000   0.00000000
180.90000000   4.66200000   0.00000000
181.00000000   4.66200000   0.00000000
181.10000000   4.66200000   0.00000000
181.20000000   4.66200000   0.00000000
181.30000000   4.66200000   0.00000000
181.40000000   4.66200000   0.00000000
181.50000000   4.66200000   0.00000000
181.60000000   4.66200000   0.00000000
181.70000000   4.66200000   0.00000000
181.80000000   4.66200000   0.00000000
181.90000000   4.66200000   0.00000000
182.00000000   4.66200000   0.00000000
182.10000000   4.66200000   0.00000000
182.20000000   4.66200000   0.00000000
182.30000000   4.66200000   0.00000000
182.40000000   4.66200000   0.00000000
182.50000000   4.66200000   0.00000000
182.60000000   4.66200000   0.00000000
182.70000000   4.66200000   0.00000000
182.80000000   4.66200000   0.00000000
182.90000000   4.66200000   0.00000000
183.00000000   4.66200000   0.00000000
183.10000000   4.66200000   0.00000000
183.20000000   4.66200000   0.00000000
183.30000000   4.66200000   0.00000000
183.40000000   4.66200000   0.00000000
183.50000000   4.66200000   0.00000000
183.60000000   4.66200000   0.00000000
183.70000000   4.66200000   0.00000000
183.80000000   4.66200000   0.00000000
183.90000000   4.66200000   0.00000000
184.00000000   4.66200000   0.00000000
184.10000000   4.66200000   0.00000000
184.20000000   4.66200000   0.00000000
184.30000000   4.66200000   0.00000000
184.40000000   4.66200000   0.00000000
184.50000000   4.66200000   0.00000000
184.60000000   4.66200000   0.00000000
184.70000000   4.66200000   0.00000000
184.80000000   4.66200000   0.00000000
184.90000000   4.66200000   0.00000000
185.00000000   4.66200000   0.00000000
185.10000000   4.66200000   0.00000000
185.20000000   4.66200000   0.00000000
185.30000000   4.66200000   0.00000000
185.40000000   4.66200000   0.00000000
185.50000000   4.66200000   0.00000000
185.60000000   4.66200000   0.00000000
185.70000000   4.66200000   0.00000000
185.80000000   4.66200000   0.00000000
185.90000000   4.66200000   0.00000000
186.00000000   4.66200000   0.00000000
186.10000000   4.66200000   0.00000000
186.20000000   4.66200000   0.00000000
186.30000000   4.66200000   0.00000000
186.40000000   4.66200000   0.00000000
186.50000000   4.66200000   0.00000000
186.60000000   4.66200000   0.00000000
186.70000000   4.66200000   0.00000000
186.80000000   4.66200000   0.00000000
186.90000000   4.66200000   0.00000000
187.00000000   4.66200000   0.00000000
187.10000000   4.66200000   0.00000000
187.20000000   4.66200000   0.00000000
187.30000000   4.66200000   0.00000000
187.40000000   4.66200000   0.00000000
187.50000000   4.66200000   0.00000000
187.60000000   4.66200000   0.00000000
187.70000000   4.66200000   0.00000000
187.80000000   4.66200000   0.00000000
187.90000000   4.66200000   0.00000000
188.00000000   4.66200000   0.00000000
188.10000000   4.66200000   0.00000000
188.20000000   4.66200000   0.00000000
188.30000000   4.66200000   0.00000000
188.40000000   4.66200000   0.00000000
188.50000000   4.66200000   0.00000000
188.60000000   4.66200000   0.00000000
188.70000000   4.66200000   0.00000000
188.80000000   4.66200000   0.00000000
188.90000000   4.66200000   0.00000000
189.00000000   4.66200000   0.00000000
189.10000000   4.66200000   0.00000000
189.20000000   4.66200000   0.00000000
189.30000000   4.66200000   0.00000000
189.40000000   4.66200000   0.00000000
189.50000000   4.66200000   0.00000000
189.60000000   4.66200000   0.00000000
189.70000000   4.66200000   0.00000000
189.80000000   4.66200000   0.00000000
189.90000000   4.66200000   0.00000000
190.00000000   4.66200000   0.00000000
190.10000000   4.66200000   0.00000000
190.20000000   4.66200000   0.00000000
190.30000000   4.66200000   0.00000000
190.40000000   4.66200000   0.00000000
190.50000000   4.66200000   0.00000000
190.60000000   4.66200000   0.00000000
190.70000000   4.66200000   0.00000000
190.80000000   4.66200000   0.00000000
190.90000000   4.66200000   0.00000000
191.00000000   4.66200000   0.00000000
191.10000000   4.66200000   0.00000000
191.20000000   4.66200000   0.00000000
191.30000000   4.66200000   0.00000000
191.40000000   4.66200000   0.00000000
191.50000000   4.66200000   0.00000000
191.60000000   4.66200000   0.00000000
191.70000000   4.66200000   0.00000000
191.80000000   4.66200000   0.00000000
191.90000000   4.66200000   0.00000000
192.00000000   4.66200000   0.00000000
192.10000000   4.66200000   0.00000000
192.20000000   4.66200000   0.00000000
192.30000000   4.66200000   0.00000000
192.40000000   4.66200000   0.00000000
192.50000000   4.66200000   0.00000000
192.60000000   4.66200000   0.00000000
192.70000000   4.66200000   0.00000000
192.80000000   4.66200000   0.00000000
192.90000000   4.66200000   0.00000000
193.00000000   4.66200000   0.00000000
193.10000000   4.66200000   0.00000000
193.20000000   4.66200000   0.00000000
193.30000000   4.66200000   0.00000000
193.40000000   4.66200000   0.00000000
193.50000000   4.66200000   0.00000000
193.60000000   4.66200000   0.00000000
193.70000000   4.66200000   0.00000000
193.80000000   4.66200000   0.00000000
193.90000000   4.66200000   0.00000000
194.00000000   4.66200000   0.00000000
194.10000000   4.66200000   0.00000000
194.20000000   4.66200000   0.00000000
194.30000000   4.66200000   0.00000000
194.40000000   4.66200000   0.00000000
194.50000000   4.66200000   0.00000000
194.60000000   4.66200000   0.00000000
194.70000000   4.66200000   0.00000000
194.80000000   4.66200000   0.00000000
194.90000000   4.66200000   0.00000000
195.00000000   4.66200000   0.00000000
195.10000000   4.66200000   0.00000000
195.20000000   4.66200000   0.00000000
195.30000000   4.66200000   0.00000000
195.40000000   4.66200000   0.00000000
195.50000000   4.66200000   0.00000000
195.60000000   4.66200000   0.00000000
195.70000000   4.66200000   0.00000000
195.80000000   4.66200000   0.00000000
195.90000000   4.66200000   0.00000000
196.00000000   4.66200000   0.00000000
196.10000000   4.66200000   0.00000000
196.20000000   4.66200000   0.00000000
196.30000000   4.66200000   0.00000000
196.40000000   4.66200000   0.00000000
196.50000000   4.66200000   0.00000000
196.60000000   4.66200000   0.00000000
196.70000000   4.66200000   0.00000000
196.80000000   4.66200000   0.00000000
196.90000000   4.66200000   0.00000000
197.00000000   4.66200000   0.00000000
197.10000000   4.66200000   0.00000000
197.20000000   4.66200000   0.00000000
197.30000000   4.66200000   0.00000000
197.40000000   4.66200000   0.00000000
197.50000000   4.66200000   0.00000000
197.60000000   4.66200000   0.00000000
197.70000000   4.66200000   0.00000000
197.80000000   4.66200000   0.00000000
197.90000000   4.66200000   0.00000000
198.00000000   4.66200000   0.00000000
198.10000000   4.66200000   0.00000000
198.20000000   4.66200000   0.00000000
198.30000000   4.66200000   0.00000000
198.40000000   4.66200000   0.00000000
198.50000000   4.66200000   0.00000000
198.60000000   4.66200000   0.00000000
198.70000000   4.66200000   0.00000000
198.80000000   4.66200000   0.00000000
198.90000000   4.66200000   0.00000000
199.00000000   4.66200000   0.00000000
199.10000000   4.66200000   0.00000000
199.20000000   4.66200000   0.00000000
199.30000000   4.66200000   0.00000000
199.40000000   4.66200000   0.00000000
199.50000000   4.66200000   0.00000000
199.60000000   4.66200000   0.00000000
199.70000000   4.66200000   0.00000000
199.80000000   4.66200000   0.00000000
199.90000000   4.66200000   0.00000000
200.00000000   4.66200000   0.00000000
200.10000000   4.66200000   0.00000000
200.20000000   4.66200000   0.00000000
200.30000000   4.66200000   0.00000000
200.40000000   4.66200000   0.00000000
200.50000000   4.66200000   0.00000000
200.60000000   4.66200000   0.00000000
200.70000000   4.66200000   0.00000000
200.80000000   4.66200000   0.00000000
200.90000000   4.66200000   0.00000000
201.00000000   4.66200000   0.00000000
201.10000000   4.66200000   0.00000000
201.20000000   4.66200000   0.00000000
201.30000000   4.66200000   0.00000000
201.40000000   4.66200000   0.00000000
201.50000000   4.66200000   0.00000000
201.60000000   4.66200000   0.00000000
201.70000000   4.66200000   0.00000000
201.80000000   4.66200000   0.00000000
201.90000000   4.66200000   0.00000000
202.00000000   4.66200000   0.00000000
202.10000000   4.66200000   0.00000000
202.20000000   4.66200000   0.00000000
202.30000000   4.66200000   0.00000000
202.40000000   4.66200000   0.00000000
202.50000000   4.66200000   0.00000000
202.60000000   4.66200000   0.00000000
202.70000000   4.66200000   0.00000000
202.80000000   4.66200000   0.00000000
202.90000000   4.66200000   0.00000000
203.00000000   4.66200000   0.00000000
203.10000000   4.66200000   0.00000000
203.20000000   4.66200000   0.00000000
203.30000000   4.66200000   0.00000000
203.40000000   4.66200000   0.00000000
203.50000000   4.66200000   0.00000000
203.60000000   4.66200000   0.00000000
203.70000000   4.66200000   0.00000000
203.80000000   4.66200000   0.00000000
203.90000000   4.66200000   0.00000000
204.00000000   4.66200000   0.00000000
204.10000000   4.66200000   0.00000000
204.20000000   4.66200000   0.00000000
204.30000000   4.66200000   0.00000000
204.40000000   4.66200000   0.00000000
204.50000000   4.66200000   0.00000000
204.60000000   4.66200000   0.00000000
204.70000000   4.66200000   0.00000000
204.80000000   4.66200000   0.00000000
204.90000000   4.66200000   0.00000000
205.00000000   4.66200000   0.00000000
205.10000000   4.66200000   0.00000000
205.20000000   4.66200000   0.00000000
205.30000000   4.66200000   0.00000000
205.40000000   4.66200000   0.00000000
205.50000000   4.66200000   0.00000000
205.60000000   4.66200000   0.00000000
205.70000000   4.66200000   0.00000000
205.80000000   4.66200000   0.00000000
205.90000000   4.66200000   0.00000000
206.00000000   4.66200000   0.00000000
206.10000000   4.66200000   0.00000000
206.20000000   4.66200000   0.00000000
206.30000000   4.66200000   0.00000000
206.40000000   4.66200000   0.00000000
206.50000000   4.66200000   0.00000000
206.60000000   4.66200000   0.00000000
206.70000000   4.66200000   0.00000000
206.80000000   4.66200000   0.00000000
206.90000000   4.66200000   0.00000000
207.00000000   4.66200000   0.00000000
207.10000000   4.66200000   0.00000000
207.20000000   4.66200000   0.00000000
207.30000000   4.66200000   0.00000000
207.40000000   4.66200000   0.00000000
207.50000000   4.66200000   0.00000000
207.60000000   4.66200000   0.00000000
207.70000000   4.66200000   0.00000000
207.80000000   4.66200000   0.00000000
207.90000000   4.66200000   0.00000000
208.00000000   4.66200000   0.00000000
208.10000000   4.66200000   0.00000000
208.20000000   4.66200000   0.00000000
208.30000000   4.66200000   0.00000000
208.40000000   4.66200000   0.00000000
208.50000000   4.66200000   0.00000000
208.60000000   4.66200000   0.00000000
208.70000000   4.66200000   0.00000000
208.80000000   4.66200000   0.00000000
208.90000000   4.66200000   0.00000000
209.00000000   4.66200000   0.00000000
209.10000000   4.66200000   0.00000000
209.20000000   4.66200000   0.00000000
209.30000000   4.66200000   0.00000000
209.40000000   4.66200000   0.00000000
209.50000000   4.66200000   0.00000000
209.60000000   4.66200000   0.00000000
209.70000000   4.66200000   0.00000000
209.80000000   4.66200000   0.00000000
209.90000000   4.66200000   0.00000000
210.00000000   4.66200000   0.00000000
210.10000000   4.66200000   0.00000000
210.20000000   4.66200000   0.00000000
210.30000000   4.66200000   0.00000000
210.40000000   4.66200000   0.00000000
210.50000000   4.66200000   0.00000000
210.60000000   4.66200000   0.00000000
210.70000000   4.66200000   0.00000000
210.80000000   4.66200000   0.00000000
210.90000000   4.66200000   0.00000000
211.00000000   4.66200000   0.00000000
211.10000000   4.66200000   0.00000000
211.20000000   4.66200000   0.00000000
211.30000000   4.66200000   0.00000000
211.40000000   4.66200000   0.00000000
211.50000000   4.66200000   0.00000000
211.60000000   4.66200000   0.00000000
211.70000000   4.66200000   0.00000000
211.80000000   4.66200000   0.00000000
211.90000000   4.66200000   0.00000000
212.00000000   4.66200000   0.00000000
212.10000000   4.66200000   0.00000000
212.20000000   4.66200000   0.00000000
212.30000000   4.66200000   0.00000000
212.40000000   4.66200000   0.00000000
212.50000000   4.66200000   0.00000000
212.60000000   4.66200000   0.00000000
212.70000000   4.66200000   0.00000000
212.80000000   4.66200000   0.00000000
212.90000000   4.66200000   0.00000000
213.00000000   4.66200000   0.00000000
213.10000000   4.66200000   0.00000000
213.20000000   4.66200000   0.00000000
213.30000000   4.66200000   0.00000000
213.40000000   4.66200000   0.00000000
213.50000000   4.66200000   0.00000000
213.60000000   4.66200000   0.00000000
213.70000000   4.66200000   0.00000000
213.80000000   4.66200000   0.00000000
213.90000000   4.66200000   0.00000000
214.00000000   4.66200000   0.00000000
214.10000000   4.66200000   0.00000000
214.20000000   4.66200000   0.00000000
214.30000000   4.66200000   0.00000000
214.40000000   4.66200000   0.00000000
214.50000000   4.66200000   0.00000000
214.60000000   4.66200000   0.00000000
214.70000000   4.66200000   0.00000000
214.80000000   4.66200000   0.00000000
214.90000000   4.66200000   0.00000000
215.00000000   4.66200000   0.00000000
215.10000000   4.66200000   0.00000000
215.20000000   4.66200000   0.00000000
215.30000000   4.66200000   0.00000000
215.40000000   4.66200000   0.00000000
215.50000000   4.66200000   0.00000000
215.60000000   4.66200000   0.00000000
215.70000000   4.66200000   0.00000000
215.80000000   4.66200000   0.00000000
215.90000000   4.66200000   0.00000000
216.00000000   4.66200000   0.00000000
216.10000000   4.66200000   0.00000000
216.20000000   4.66200000   0.00000000
216.30000000   4.66200000   0.00000000
216.40000000   4.66200000   0.00000000
216.50000000   4.66200000   0.00000000
216.60000000   4.66200000   0.00000000
216.70000000   4.66200000   0.00000000
216.80000000   4.66200000   0.00000000
216.90000000   4.66200000   0.00000000
217.00000000   4.66200000   0.00000000
217.10000000   4.66200000   0.00000000
217.20000000   4.66200000   0.00000000
217.30000000   4.66200000   0.00000000
217.40000000   4.66200000   0.00000000
217.50000000   4.66200000   0.00000000
217.60000000   4.66200000   0.00000000
217.70000000   4.66200000   0.00000000
217.80000000   4.66200000   0.00000000
217.90000000   4.66200000   0.00000000
218.00000000   4.66200000   0.00000000
218.10000000   4.66200000   0.00000000
218.20000000   4.66200000   0.00000000
218.30000000   4.66200000   0.00000000
218.40000000   4.66200000   0.00000000
218.50000000   4.66200000   0.00000000
218.60000000   4.66200000   0.00000000
218.70000000   4.66200000   0.00000000
218.80000000   4.66200000   0.00000000
218.90000000   4.66200000   0.00000000
219.00000000   4.66200000   0.00000000
219.10000000   4.66200000   0.00000000
219.20000000   4.66200000   0.00000000
219.30000000   4.66200000   0.00000000
219.40000000   4.66200000   0.00000000
219.50000000   4.66200000   0.00000000
219.60000000   4.66200000   0.00000000
219.70000000   4.66200000   0.00000000
219.80000000   4.66200000   0.00000000
219.90000000   4.66200000   0.00000000
220.00000000   4.66200000   0.00000000
220.10000000   4.66200000   0.00000000
220.20000000   4.66200000   0.00000000
220.30000000   4.66200000   0.00000000
220.40000000   4.66200000   0.00000000
220.50000000   4.66200000   0.00000000
220.60000000   4.66200000   0.00000000
220.70000000   4.66200000   0.00000000
220.80000000   4.66200000   0.00000000
220.90000000   4.66200000   0.00000000
221.00000000   4.66200000   0.00000000
221.10000000   4.66200000   0.00000000
221.20000000   4.66200000   0.00000000
221.30000000   4.66200000   0.00000000
221.40000000   4.66200000   0.00000000
221.50000000   4.66200000   0.00000000
221.60000000   4.66200000   0.00000000
221.70000000   4.66200000   0.00000000
221.80000000   4.66200000   0.00000000
221.90000000   4.66200000   0.00000000
222.00000000   4.66200000   0.00000000
222.10000000   4.66200000   0.00000000
222.20000000   4.66200000   0.00000000
222.30000000   4.66200000   0.00000000
222.40000000   4.66200000   0.00000000
222.50000000   4.66200000   0.00000000
222.60000000   4.66200000   0.00000000
222.70000000   4.66200000   0.00000000
222.80000000   4.66200000   0.00000000
222.90000000   4.66200000   0.00000000
223.00000000   4.66200000   0.00000000
223.10000000   4.66200000   0.00000000
223.20000000   4.66200000   0.00000000
223.30000000   4.66200000   0.00000000
223.40000000   4.66200000   0.00000000
223.50000000   4.66200000   0.00000000
223.60000000   4.66200000   0.00000000
223.70000000   4.66200000   0.00000000
223.80000000   4.66200000   0.00000000
223.90000000   4.66200000   0.00000000
224.00000000   4.66200000   0.00000000
224.10000000   4.66200000   0.00000000
224.20000000   4.66200000   0.00000000
224.30000000   4.66200000   0.00000000
224.40000000   4.66200000   0.00000000
224.50000000   4.66200000   0.00000000
224.60000000   4.66200000   0.00000000
224.70000000   4.66200000   0.00000000
224.80000000   4.66200000   0.00000000
224.90000000   4.66200000   0.00000000
225.00000000   4.66200000   0.00000000
225.10000000   4.66200000   0.00000000
225.20000000   4.66200000   0.00000000
225.30000000   4.66200000   0.00000000
225.40000000   4.66200000   0.00000000
225.50000000   4.66200000   0.00000000
225.60000000   4.66200000   0.00000000
225.70000000   4.66200000   0.00000000
225.80000000   4.66200000   0.00000000
225.90000000   4.66200000   0.00000000
226.00000000   4.66200000   0.00000000
226.10000000   4.66200000   0.00000000
226.20000000   4.66200000   0.00000000
226.30000000   4.66200000   0.00000000
226.40000000   4.66200000   0.00000000
226.50000000   4.66200000   0.00000000
226.60000000   4.66200000   0.00000000
226.70000000   4.66200000   0.00000000
226.80000000   4.66200000   0.00000000
226.90000000   4.66200000   0.00000000
227.00000000   4.66200000   0.00000000
227.10000000   4.66200000   0.00000000
227.20000000   4.66200000   0.00000000
227.30000000   4.66200000   0.00000000
227.40000000   4.66200000   0.00000000
227.50000000   4.66200000   0.00000000
227.60000000   4.66200000   0.00000000
227.70000000   4.66200000   0.00000000
227.80000000   4.66200000   0.00000000
227.90000000   4.66200000   0.00000000
228.00000000   4.66200000   0.00000000
228.10000000   4.66200000   0.00000000
228.20000000   4.66200000   0.00000000
228.30000000   4.66200000   0.00000000
228.40000000   4.66200000   0.00000000
228.50000000   4.66200000   0.00000000
228.60000000   4.66200000   0.00000000
228.70000000   4.66200000   0.00000000
228.80000000   4.66200000   0.00000000
228.90000000   4.66200000   0.00000000
229.00000000   4.66200000   0.00000000
229.10000000   4.66200000   0.00000000
229.20000000   4.66200000   0.00000000
229.30000000   4.66200000   0.00000000
229.40000000   4.66200000   0.00000000
229.50000000   4.66200000   0.00000000
229.60000000   4.66200000   0.00000000
229.70000000   4.66200000   0.00000000
229.80000000   4.66200000   0.00000000
229.90000000   4.66200000   0.00000000
230.00000000   4.66200000   0.00000000
230.10000000   4.66200000   0.00000000
230.20000000   4.66200000   0.00000000
230.30000000   4.66200000   0.00000000
230.40000000   4.66200000   0.00000000
230.50000000   4.66200000   0.00000000
230.60000000   4.66200000   0.00000000
230.70000000   4.66200000   0.00000000
230.80000000   4.66200000   0.00000000
230.90000000   4.66200000   0.00000000
231.00000000   4.66200000   0.00000000
231.10000000   4.66200000   0.00000000
231.20000000   4.66200000   0.00000000
231.30000000   4.66200000   0.00000000
231.40000000   4.66200000   0.00000000
231.50000000   4.66200000   0.00000000
231.60000000   4.66200000   0.00000000
231.70000000   4.66200000   0.00000000
231.80000000   4.66200000   0.00000000
231.90000000   4.66200000   0.00000000
232.00000000   4.66200000   0.00000000
232.10000000   4.66200000   0.00000000
232.20000000   4.66200000   0.00000000
232.30000000   4.66200000   0.00000000
232.40000000   4.66200000   0.00000000
232.50000000   4.66200000   0.00000000
232.60000000   4.66200000   0.00000000
232.70000000   4.66200000   0.00000000
232.80000000   4.66200000   0.00000000
232.90000000   4.66200000   0.00000000
233.00000000   4.66200000   0.00000000
233.10000000   4.66200000   0.00000000
233.20000000   4.66200000   0.00000000
233.30000000   4.66200000   0.00000000
233.40000000   4.66200000   0.00000000
233.50000000   4.66200000   0.00000000
233.60000000   4.66200000   0.00000000
233.70000000   4.66200000   0.00000000
233.80000000   4.66200000   0.00000000
233.90000000   4.66200000   0.00000000
234.00000000   4.66200000   0.00000000
234.10000000   4.66200000   0.00000000
234.20000000   4.66200000   0.00000000
234.30000000   4.66200000   0.00000000
234.40000000   4.66200000   0.00000000
234.50000000   4.66200000   0.00000000
234.60000000   4.66200000   0.00000000
234.70000000   4.66200000   0.00000000
234.80000000   4.66200000   0.00000000
234.90000000   4.66200000   0.00000000
235.00000000   4.66200000   0.00000000
235.10000000   4.66200000   0.00000000
235.20000000   4.66200000   0.00000000
235.30000000   4.66200000   0.00000000
235.40000000   4.66200000   0.00000000
235.50000000   4.66200000   0.00000000
235.60000000   4.66200000   0.00000000
235.70000000   4.66200000   0.00000000
235.80000000   4.66200000   0.00000000
235.90000000   4.66200000   0.00000000
236.00000000   4.66200000   0.00000000
236.10000000   4.66200000   0.00000000
236.20000000   4.66200000   0.00000000
236.30000000   4.66200000   0.00000000
236.40000000   4.66200000   0.00000000
236.50000000   4.66200000   0.00000000
236.60000000   4.66200000   0.00000000
236.70000000   4.66200000   0.00000000
236.80000000   4.66200000   0.00000000
236.90000000   4.66200000   0.00000000
237.00000000   4.66200000   0.00000000
237.10000000   4.66200000   0.00000000
237.20000000   4.66200000   0.00000000
237.30000000   4.66200000   0.00000000
237.40000000   4.66200000   0.00000000
237.50000000   4.66200000   0.00000000
237.60000000   4.66200000   0.00000000
237.70000000   4.66200000   0.00000000
237.80000000   4.66200000   0.00000000
237.90000000   4.66200000   0.00000000
238.00000000   4.66200000   0.00000000
238.10000000   4.66200000   0.00000000
238.20000000   4.66200000   0.00000000
238.30000000   4.66200000   0.00000000
238.40000000   4.66200000   0.00000000
238.50000000   4.66200000   0.00000000
238.60000000   4.66200000   0.00000000
238.70000000   4.66200000   0.00000000
238.80000000   4.66200000   0.00000000
238.90000000   4.66200000   0.00000000
239.00000000   4.66200000   0.00000000
239.10000000   4.66200000   0.00000000
239.20000000   4.66200000   0.00000000
239.30000000   4.66200000   0.00000000
239.40000000   4.66200000   0.00000000
239.50000000   4.66200000   0.00000000
239.60000000   4.66200000   0.00000000
239.70000000   4.66200000   0.00000000
239.80000000   4.66200000   0.00000000
239.90000000   4.66200000   0.00000000
240.00000000   4.66200000   0.00000000
240.10000000   4.66200000   0.00000000
240.20000000   4.66200000   0.00000000
240.30000000   4.66200000   0.00000000
240.40000000   4.66200000   0.00000000
240.50000000   4.66200000   0.00000000
240.60000000   4.66200000   0.00000000
240.70000000   4.66200000   0.00000000
240.80000000   4.66200000   0.00000000
240.90000000   4.66200000   0.00000000
241.00000000   4.66200000   0.00000000
241.10000000   4.66200000   0.00000000
241.20000000   4.66200000   0.00000000
241.30000000   4.66200000   0.00000000
241.40000000   4.66200000   0.00000000
241.50000000   4.66200000   0.00000000
241.60000000   4.66200000   0.00000000
241.70000000   4.66200000   0.00000000
241.80000000   4.66200000   0.00000000
241.90000000   4.66200000   0.00000000
242.00000000   4.66200000   0.00000000
242.10000000   4.66200000   0.00000000
242.20000000   4.66200000   0.00000000
242.30000000   4.66200000   0.00000000
242.40000000   4.66200000   0.00000000
242.50000000   4.66200000   0.00000000
242.60000000   4.66200000   0.00000000
242.70000000   4.66200000   0.00000000
242.80000000   4.66200000   0.00000000
242.90000000   4.66200000   0.00000000
243.00000000   4.66200000   0.00000000
243.10000000   4.66200000   0.00000000
243.20000000   4.66200000   0.00000000
243.30000000   4.66200000   0.00000000
243.40000000   4.66200000   0.00000000
243.50000000   4.66200000   0.00000000
243.60000000   4.66200000   0.00000000
243.70000000   4.66200000   0.00000000
243.80000000   4.66200000   0.00000000
243.90000000   4.66200000   0.00000000
244.00000000   4.66200000   0.00000000
244.10000000   4.66200000   0.00000000
244.20000000   4.66200000   0.00000000
244.30000000   4.66200000   0.00000000
244.40000000   4.66200000   0.00000000
244.50000000   4.66200000   0.00000000
244.60000000   4.66200000   0.00000000
244.70000000   4.66200000   0.00000000
244.80000000   4.66200000   0.00000000
244.90000000   4.66200000   0.00000000
245.00000000   4.66200000   0.00000000
245.10000000   4.66200000   0.00000000
245.20000000   4.66200000   0.00000000
245.30000000   4.66200000   0.00000000
245.40000000   4.66200000   0.00000000
245.50000000   4.66200000   0.00000000
245.60000000   4.66200000   0.00000000
245.70000000   4.66200000   0.00000000
245.80000000   4.66200000   0.00000000
245.90000000   4.66200000   0.00000000
246.00000000   4.66200000   0.00000000
246.10000000   4.66200000   0.00000000
246.20000000   4.66200000   0.00000000
246.30000000   4.66200000   0.00000000
246.40000000   4.66200000   0.00000000
246.50000000   4.66200000   0.00000000
246.60000000   4.66200000   0.00000000
246.70000000   4.66200000   0.00000000
246.80000000   4.66200000   0.00000000
246.90000000   4.66200000   0.00000000
247.00000000   4.66200000   0.00000000
247.10000000   4.66200000   0.00000000
247.20000000   4.66200000   0.00000000
247.30000000   4.66200000   0.00000000
247.40000000   4.66200000   0.00000000
247.50000000   4.66200000   0.00000000
247.60000000   4.66200000   0.00000000
247.70000000   4.66200000   0.00000000
247.80000000   4.66200000   0.00000000
247.90000000   4.66200000   0.00000000
248.00000000   4.66200000   0.00000000
248.10000000   4.66200000   0.00000000
248.20000000   4.66200000   0.00000000
248.30000000   4.66200000   0.00000000
248.40000000   4.66200000   0.00000000
248.50000000   4.66200000   0.00000000
248.60000000   4.66200000   0.00000000
248.70000000   4.66200000   0.00000000
248.80000000   4.66200000   0.00000000
248.90000000   4.66200000   0.00000000
249.00000000   4.66200000   0.00000000
249.10000000   4.66200000   0.00000000
249.20000000   4.66200000   0.00000000
249.30000000   4.66200000   0.00000000
249.40000000   4.66200000   0.00000000
249.50000000   4.66200000   0.00000000
249.60000000   4.66200000   0.00000000
249.70000000   4.66200000   0.00000000
249.80000000   4.66200000   0.00000000
249.90000000   4.66200000   0.00000000
250.00000000   4.66200000   0.00000000
250.10000000   4.66200000   0.00000000
250.20000000   4.66200000   0.00000000
250.30000000   4.66200000   0.00000000
250.40000000   4.66200000   0.00000000
250.50000000   4.66200000   0.00000000
250.60000000   4.66200000   0.00000000
250.70000000   4.66200000   0.00000000
250.80000000   4.66200000   0.00000000
250.90000000   4.66200000   0.00000000
251.00000000   4.66200000   0.00000000
251.10000000   4.66200000   0.00000000
251.20000000   4.66200000   0.00000000
251.30000000   4.66200000   0.00000000
251.40000000   4.66200000   0.00000000
251.50000000   4.66200000   0.00000000
251.60000000   4.66200000   0.00000000
251.70000000   4.66200000   0.00000000
251.80000000   4.66200000   0.00000000
251.90000000   4.66200000   0.00000000
252.00000000   4.66200000   0.00000000
252.10000000   4.66200000   0.00000000
252.20000000   4.66200000   0.00000000
252.30000000   4.66200000   0.00000000
252.40000000   4.66200000   0.00000000
252.50000000   4.66200000   0.00000000
252.60000000   4.66200000   0.00000000
252.70000000   4.66200000   0.00000000
252.80000000   4.66200000   0.00000000
252.90000000   4.66200000   0.00000000
253.00000000   4.66200000   0.00000000
253.10000000   4.66200000   0.00000000
253.20000000   4.66200000   0.00000000
253.30000000   4.66200000   0.00000000
253.40000000   4.66200000   0.00000000
253.50000000   4.66200000   0.00000000
253.60000000   4.66200000   0.00000000
253.70000000   4.66200000   0.00000000
253.80000000   4.66200000   0.00000000
253.90000000   4.66200000   0.00000000
254.00000000   4.66200000   0.00000000
254.10000000   4.66200000   0.00000000
254.20000000   4.66200000   0.00000000
254.30000000   4.66200000   0.00000000
254.40000000   4.66200000   0.00000000
254.50000000   4.66200000   0.00000000
254.60000000   4.66200000   0.00000000
254.70000000   4.66200000   0.00000000
254.80000000   4.66200000   0.00000000
254.90000000   4.66200000   0.00000000
255.00000000   4.66200000   0.00000000
255.10000000   4.66200000   0.00000000
255.20000000   4.66200000   0.00000000
255.30000000   4.66200000   0.00000000
255.40000000   4.66200000   0.00000000
255.50000000   4.66200000   0.00000000
255.60000000   4.66200000   0.00000000
255.70000000   4.66200000   0.00000000
255.80000000   4.66200000   0.00000000
255.90000000   4.66200000   0.00000000
256.00000000   4.66200000   0.00000000
256.10000000   4.66200000   0.00000000
256.20000000   4.66200000   0.00000000
256.30000000   4.66200000   0.00000000
256.40000000   4.66200000   0.00000000
256.50000000   4.66200000   0.00000000
256.60000000   4.66200000   0.00000000
256.70000000   4.66200000   0.00000000
256.80000000   4.66200000   0.00000000
256.90000000   4.66200000   0.00000000
257.00000000   4.66200000   0.00000000
257.10000000   4.66200000   0.00000000
257.20000000   4.66200000   0.00000000
257.30000000   4.66200000   0.00000000
257.40000000   4.66200000   0.00000000
257.50000000   4.66200000   0.00000000
257.60000000   4.66200000   0.00000000
257.70000000   4.66200000   0.00000000
257.80000000   4.66200000   0.00000000
257.90000000   4.66200000   0.00000000
258.00000000   4.66200000   0.00000000
258.10000000   4.66200000   0.00000000
258.20000000   4.66200000   0.00000000
258.30000000   4.66200000   0.00000000
258.40000000   4.66200000   0.00000000
258.50000000   4.66200000   0.00000000
258.60000000   4.66200000   0.00000000
258.70000000   4.66200000   0.00000000
258.80000000   4.66200000   0.00000000
258.90000000   4.66200000   0.00000000
259.00000000   4.66200000   0.00000000
259.10000000   4.66200000   0.00000000
259.20000000   4.66200000   0.00000000
259.30000000   4.66200000   0.00000000
259.40000000   4.66200000   0.00000000
259.50000000   4.66200000   0.00000000
259.60000000   4.66200000   0.00000000
259.70000000   4.66200000   0.00000000
259.80000000   4.66200000   0.00000000
259.90000000   4.66200000   0.00000000
260.00000000   4.66200000   0.00000000
260.10000000   4.66200000   0.00000000
260.20000000   4.66200000   0.00000000
260.30000000   4.66200000   0.00000000
260.40000000   4.66200000   0.00000000
260.50000000   4.66200000   0.00000000
260.60000000   4.66200000   0.00000000
260.70000000   4.66200000   0.00000000
260.80000000   4.66200000   0.00000000
260.90000000   4.66200000   0.00000000
261.00000000   4.66200000   0.00000000
261.10000000   4.66200000   0.00000000
261.20000000   4.66200000   0.00000000
261.30000000   4.66200000   0.00000000
261.40000000   4.66200000   0.00000000
261.50000000   4.66200000   0.00000000
261.60000000   4.66200000   0.00000000
261.70000000   4.66200000   0.00000000
261.80000000   4.66200000   0.00000000
261.90000000   4.66200000   0.00000000
262.00000000   4.66200000   0.00000000
262.10000000   4.66200000   0.00000000
262.20000000   4.66200000   0.00000000
262.30000000   4.66200000   0.00000000
262.40000000   4.66200000   0.00000000
262.50000000   4.66200000   0.00000000
262.60000000   4.66200000   0.00000000
262.70000000   4.66200000   0.00000000
262.80000000   4.66200000   0.00000000
262.90000000   4.66200000   0.00000000
263.00000000   4.66200000   0.00000000
263.10000000   4.66200000   0.00000000
263.20000000   4.66200000   0.00000000
263.30000000   4.66200000   0.00000000
263.40000000   4.66200000   0.00000000
263.50000000   4.66200000   0.00000000
263.60000000   4.66200000   0.00000000
263.70000000   4.66200000   0.00000000
263.80000000   4.66200000   0.00000000
263.90000000   4.66200000   0.00000000
264.00000000   4.66200000   0.00000000
264.10000000   4.66200000   0.00000000
264.20000000   4.66200000   0.00000000
264.30000000   4.66200000   0.00000000
264.40000000   4.66200000   0.00000000
264.50000000   4.66200000   0.00000000
264.60000000   4.66200000   0.00000000
264.70000000   4.66200000   0.00000000
264.80000000   4.66200000   0.00000000
264.90000000   4.66200000   0.00000000
265.00000000   4.66200000   0.00000000
265.10000000   4.66200000   0.00000000
265.20000000   4.66200000   0.00000000
265.30000000   4.66200000   0.00000000
265.40000000   4.66200000   0.00000000
265.50000000   4.66200000   0.00000000
265.60000000   4.66200000   0.00000000
265.70000000   4.66200000   0.00000000
265.80000000   4.66200000   0.00000000
265.90000000   4.66200000   0.00000000
266.00000000   4.66200000   0.00000000
266.10000000   4.66200000   0.00000000
266.20000000   4.66200000   0.00000000
266.30000000   4.66200000   0.00000000
266.40000000   4.66200000   0.00000000
266.50000000   4.66200000   0.00000000
266.60000000   4.66200000   0.00000000
266.70000000   4.66200000   0.00000000
266.80000000   4.66200000   0.00000000
266.90000000   4.66200000   0.00000000
267.00000000   4.66200000   0.00000000
267.10000000   4.66200000   0.00000000
267.20000000   4.66200000   0.00000000
267.30000000   4.66200000   0.00000000
267.40000000   4.66200000   0.00000000
267.50000000   4.66200000   0.00000000
267.60000000   4.66200000   0.00000000
267.70000000   4.66200000   0.00000000
267.80000000   4.66200000   0.00000000
267.90000000   4.66200000   0.00000000
268.00000000   4.66200000   0.00000000
268.10000000   4.66200000   0.00000000
268.20000000   4.66200000   0.00000000
268.30000000   4.66200000   0.00000000
268.40000000   4.66200000   0.00000000
268.50000000   4.66200000   0.00000000
268.60000000   4.66200000   0.00000000
268.70000000   4.66200000   0.00000000
268.80000000   4.66200000   0.00000000
268.90000000   4.66200000   0.00000000
269.00000000   4.66200000   0.00000000
269.10000000   4.66200000   0.00000000
269.20000000   4.66200000   0.00000000
269.30000000   4.66200000   0.00000000
269.40000000   4.66200000   0.00000000
269.50000000   4.66200000   0.00000000
269.60000000   4.66200000   0.00000000
269.70000000   4.66200000   0.00000000
269.80000000   4.66200000   0.00000000
269.90000000   4.66200000   0.00000000
270.00000000   4.66200000   0.00000000
270.10000000   4.66200000   0.00000000
270.20000000   4.66200000   0.00000000
270.30000000   4.66200000   0.00000000
270.40000000   4.66200000   0.00000000
270.50000000   4.66200000   0.00000000
270.60000000   4.66200000   0.00000000
270.70000000   4.66200000   0.00000000
270.80000000   4.66200000   0.00000000
270.90000000   4.66200000   0.00000000
271.00000000   4.66200000   0.00000000
271.10000000   4.66200000   0.00000000
271.20000000   4.66200000   0.00000000
271.30000000   4.66200000   0.00000000
271.40000000   4.66200000   0.00000000
271.50000000   4.66200000   0.00000000
271.60000000   4.66200000   0.00000000
271.70000000   4.66200000   0.00000000
271.80000000   4.66200000   0.00000000
271.90000000   4.66200000   0.00000000
272.00000000   4.66200000   0.00000000
272.10000000   4.66200000   0.00000000
272.20000000   4.66200000   0.00000000
272.30000000   4.66200000   0.00000000
272.40000000   4.66200000   0.00000000
272.50000000   4.66200000   0.00000000
272.60000000   4.66200000   0.00000000
272.70000000   4.66200000   0.00000000
272.80000000   4.66200000   0.00000000
272.90000000   4.66200000   0.00000000
273.00000000   4.66200000   0.00000000
273.10000000   4.66200000   0.00000000
273.20000000   4.66200000   0.00000000
273.30000000   4.66200000   0.00000000
273.40000000   4.66200000   0.00000000
273.50000000   4.66200000   0.00000000
273.60000000   4.66200000   0.00000000
273.70000000   4.66200000   0.00000000
273.80000000   4.66200000   0.00000000
273.90000000   4.66200000   0.00000000
274.00000000   4.66200000   0.00000000
274.10000000   4.66200000   0.00000000
274.20000000   4.66200000   0.00000000
274.30000000   4.66200000   0.00000000
274.40000000   4.66200000   0.00000000
274.50000000   4.66200000   0.00000000
274.60000000   4.66200000   0.00000000
274.70000000   4.66200000   0.00000000
274.80000000   4.66200000   0.00000000
274.90000000   4.66200000   0.00000000
275.00000000   4.66200000   0.00000000
275.10000000   4.66200000   0.00000000
275.20000000   4.66200000   0.00000000
275.30000000   4.66200000   0.00000000
275.40000000   4.66200000   0.00000000
275.50000000   4.66200000   0.00000000
275.60000000   4.66200000   0.00000000
275.70000000   4.66200000   0.00000000
275.80000000   4.66200000   0.00000000
275.90000000   4.66200000   0.00000000
276.00000000   4.66200000   0.00000000
276.10000000   4.66200000   0.00000000
276.20000000   4.66200000   0.00000000
276.30000000   4.66200000   0.00000000
276.40000000   4.66200000   0.00000000
276.50000000   4.66200000   0.00000000
276.60000000   4.66200000   0.00000000
276.70000000   4.66200000   0.00000000
276.80000000   4.66200000   0.00000000
276.90000000   4.66200000   0.00000000
277.00000000   4.66200000   0.00000000
277.10000000   4.66200000   0.00000000
277.20000000   4.66200000   0.00000000
277.30000000   4.66200000   0.00000000
277.40000000   4.66200000   0.00000000
277.50000000   4.66200000   0.00000000
277.60000000   4.66200000   0.00000000
277.70000000   4.66200000   0.00000000
277.80000000   4.66200000   0.00000000
277.90000000   4.66200000   0.00000000
278.00000000   4.66200000   0.00000000
278.10000000   4.66200000   0.00000000
278.20000000   4.66200000   0.00000000
278.30000000   4.66200000   0.00000000
278.40000000   4.66200000   0.00000000
278.50000000   4.66200000   0.00000000
278.60000000   4.66200000   0.00000000
278.70000000   4.66200000   0.00000000
278.80000000   4.66200000   0.00000000
278.90000000   4.66200000   0.00000000
279.00000000   4.66200000   0.00000000
279.10000000   4.66200000   0.00000000
279.20000000   4.66200000   0.00000000
279.30000000   4.66200000   0.00000000
279.40000000   4.66200000   0.00000000
279.50000000   4.66200000   0.00000000
279.60000000   4.66200000   0.00000000
279.70000000   4.66200000   0.00000000
279.80000000   4.66200000   0.00000000
279.90000000   4.66200000   0.00000000
280.00000000   4.66200000   0.00000000
280.10000000   4.66200000   0.00000000
280.20000000   4.66200000   0.00000000
280.30000000   4.66200000   0.00000000
280.40000000   4.66200000   0.00000000
280.50000000   4.66200000   0.00000000
280.60000000   4.66200000   0.00000000
280.70000000   4.66200000   0.00000000
280.80000000   4.66200000   0.00000000
280.90000000   4.66200000   0.00000000
281.00000000   4.66200000   0.00000000
281.10000000   4.66200000   0.00000000
281.20000000   4.66200000   0.00000000
281.30000000   4.66200000   0.00000000
281.40000000   4.66200000   0.00000000
281.50000000   4.66200000   0.00000000
281.60000000   4.66200000   0.00000000
281.70000000   4.66200000   0.00000000
281.80000000   4.66200000   0.00000000
281.90000000   4.66200000   0.00000000
282.00000000   4.66200000   0.00000000
282.10000000   4.66200000   0.00000000
282.20000000   4.66200000   0.00000000
282.30000000   4.66200000   0.00000000
282.40000000   4.66200000   0.00000000
282.50000000   4.66200000   0.00000000
282.60000000   4.66200000   0.00000000
282.70000000   4.66200000   0.00000000
282.80000000   4.66200000   0.00000000
282.90000000   4.66200000   0.00000000
283.00000000   4.66200000   0.00000000
283.10000000   4.66200000   0.00000000
283.20000000   4.66200000   0.00000000
283.30000000   4.66200000   0.00000000
283.40000000   4.66200000   0.00000000
283.50000000   4.66200000   0.00000000
283.60000000   4.66200000   0.00000000
283.70000000   4.66200000   0.00000000
283.80000000   4.66200000   0.00000000
283.90000000   4.66200000   0.00000000
284.00000000   4.66200000   0.00000000
284.10000000   4.66200000   0.00000000
284.20000000   4.66200000   0.00000000
284.30000000   4.66200000   0.00000000
284.40000000   4.66200000   0.00000000
284.50000000   4.66200000   0.00000000
284.60000000   4.66200000   0.00000000
284.70000000   4.66200000   0.00000000
284.80000000   4.66200000   0.00000000
284.90000000   4.66200000   0.00000000
285.00000000   4.66200000   0.00000000
285.10000000   4.66200000   0.00000000
285.20000000   4.66200000   0.00000000
285.30000000   4.66200000   0.00000000
285.40000000   4.66200000   0.00000000
285.50000000   4.66200000   0.00000000
285.60000000   4.66200000   0.00000000
285.70000000   4.66200000   0.00000000
285.80000000   4.66200000   0.00000000
285.90000000   4.66200000   0.00000000
286.00000000   4.66200000   0.00000000
286.10000000   4.66200000   0.00000000
286.20000000   4.66200000   0.00000000
286.30000000   4.66200000   0.00000000
286.40000000   4.66200000   0.00000000
286.50000000   4.66200000   0.00000000
286.60000000   4.66200000   0.00000000
286.70000000   4.66200000   0.00000000
286.80000000   4.66200000   0.00000000
286.90000000   4.66200000   0.00000000
287.00000000   4.66200000   0.00000000
287.10000000   4.66200000   0.00000000
287.20000000   4.66200000   0.00000000
287.30000000   4.66200000   0.00000000
287.40000000   4.66200000   0.00000000
287.50000000   4.66200000   0.00000000
287.60000000   4.66200000   0.00000000
287.70000000   4.66200000   0.00000000
287.80000000   4.66200000   0.00000000
287.90000000   4.66200000   0.00000000
288.00000000   4.66200000   0.00000000
288.10000000   4.66200000   0.00000000
288.20000000   4.66200000   0.00000000
288.30000000   4.66200000   0.00000000
288.40000000   4.66200000   0.00000000
288.50000000   4.66200000   0.00000000
288.60000000   4.66200000   0.00000000
288.70000000   4.66200000   0.00000000
288.80000000   4.66200000   0.00000000
288.90000000   4.66200000   0.00000000
289.00000000   4.66200000   0.00000000
289.10000000   4.66200000   0.00000000
289.20000000   4.66200000   0.00000000
289.30000000   4.66200000   0.00000000
289.40000000   4.66200000   0.00000000
289.50000000   4.66200000   0.00000000
289.60000000   4.66200000   0.00000000
289.70000000   4.66200000   0.00000000
289.80000000   4.66200000   0.00000000
289.90000000   4.66200000   0.00000000
290.00000000   4.66200000   0.00000000
290.10000000   4.66200000   0.00000000
290.20000000   4.66200000   0.00000000
290.30000000   4.66200000   0.00000000
290.40000000   4.66200000   0.00000000
290.50000000   4.66200000   0.00000000
290.60000000   4.66200000   0.00000000
290.70000000   4.66200000   0.00000000
290.80000000   4.66200000   0.00000000
290.90000000   4.66200000   0.00000000
291.00000000   4.66200000   0.00000000
291.10000000   4.66200000   0.00000000
291.20000000   4.66200000   0.00000000
291.30000000   4.66200000   0.00000000
291.40000000   4.66200000   0.00000000
291.50000000   4.66200000   0.00000000
291.60000000   4.66200000   0.00000000
291.70000000   4.66200000   0.00000000
291.80000000   4.66200000   0.00000000
291.90000000   4.66200000   0.00000000
292.00000000   4.66200000   0.00000000
292.10000000   4.66200000   0.00000000
292.20000000   4.66200000   0.00000000
292.30000000   4.66200000   0.00000000
292.40000000   4.66200000   0.00000000
292.50000000   4.66200000   0.00000000
292.60000000   4.66200000   0.00000000
292.70000000   4.66200000   0.00000000
292.80000000   4.66200000   0.00000000
292.90000000   4.66200000   0.00000000
293.00000000   4.66200000   0.00000000
293.10000000   4.66200000   0.00000000
293.20000000   4.66200000   0.00000000
293.30000000   4.66200000   0.00000000
293.40000000   4.66200000   0.00000000
293.50000000   4.66200000   0.00000000
293.60000000   4.66200000   0.00000000
293.70000000   4.66200000   0.00000000
293.80000000   4.66200000   0.00000000
293.90000000   4.66200000   0.00000000
294.00000000   4.66200000   0.00000000
294.10000000   4.66200000   0.00000000
294.20000000   4.66200000   0.00000000
294.30000000   4.66200000   0.00000000
294.40000000   4.66200000   0.00000000
294.50000000   4.66200000   0.00000000
294.60000000   4.66200000   0.00000000
294.70000000   4.66200000   0.00000000
294.80000000   4.66200000   0.00000000
294.90000000   4.66200000   0.00000000
295.00000000   4.66200000   0.00000000
295.10000000   4.66200000   0.00000000
295.20000000   4.66200000   0.00000000
295.30000000   4.66200000   0.00000000
295.40000000   4.66200000   0.00000000
295.50000000   4.66200000   0.00000000
295.60000000   4.66200000   0.00000000
295.70000000   4.66200000   0.00000000
295.80000000   4.66200000   0.00000000
295.90000000   4.66200000   0.00000000
296.00000000   4.66200000   0.00000000
296.10000000   4.66200000   0.00000000
296.20000000   4.66200000   0.00000000
296.30000000   4.66200000   0.00000000
296.40000000   4.66200000   0.00000000
296.50000000   4.66200000   0.00000000
296.60000000   4.66200000   0.00000000
296.70000000   4.66200000   0.00000000
296.80000000   4.66200000   0.00000000
296.90000000   4.66200000   0.00000000
297.00000000   4.66200000   0.00000000
297.10000000   4.66200000   0.00000000
297.20000000   4.66200000   0.00000000
297.30000000   4.66200000   0.00000000
297.40000000   4.66200000   0.00000000
297.50000000   4.66200000   0.00000000
297.60000000   4.66200000   0.00000000
297.70000000   4.66200000   0.00000000
297.80000000   4.66200000   0.00000000
297.90000000   4.66200000   0.00000000
298.00000000   4.66200000   0.00000000
298.10000000   4.66200000   0.00000000
298.20000000   4.66200000   0.00000000
298.30000000   4.66200000   0.00000000
298.40000000   4.66200000   0.00000000
298.50000000   4.66200000   0.00000000
298.60000000   4.66200000   0.00000000
298.70000000   4.66200000   0.00000000
298.80000000   4.66200000   0.00000000
298.90000000   4.66200000   0.00000000
299.00000000   4.66200000   0.00000000
299.10000000   4.66200000   0.00000000
299.20000000   4.66200000   0.00000000
299.30000000   4.66200000   0.00000000
299.40000000   4.66200000   0.00000000
299.50000000   4.66200000   0.00000000
299.60000000   4.66200000   0.00000000
299.70000000   4.66200000   0.00000000
299.80000000   4.66200000   0.00000000
299.90000000   4.66200000   0.00000000
300.00000000   4.66200000   0.00000000
300.10000000   4.66200000   0.00000000
300.20000000   4.66200000   0.00000000
300.30000000   4.66200000   0.00000000
300.40000000   4.66200000   0.00000000
300.50000000   4.66200000   0.00000000
300.60000000   4.66200000   0.00000000
300.70000000   4.66200000   0.00000000
300.80000000   4.66200000   0.00000000
300.90000000   4.66200000   0.00000000
301.00000000   4.66200000   0.00000000
301.10000000   4.66200000   0.00000000
301.20000000   4.66200000   0.00000000
301.30000000   4.66200000   0.00000000
301.40000000   4.66200000   0.00000000
301.50000000   4.66200000   0.00000000
301.60000000   4.66200000   0.00000000
301.70000000   4.66200000   0.00000000
301.80000000   4.66200000   0.00000000
301.90000000   4.66200000   0.00000000
302.00000000   4.66200000   0.00000000
302.10000000   4.66200000   0.00000000
302.20000000   4.66200000   0.00000000
302.30000000   4.66200000   0.00000000
302.40000000   4.66200000   0.00000000
302.50000000   4.66200000   0.00000000
302.60000000   4.66200000   0.00000000
302.70000000   4.66200000   0.00000000
302.80000000   4.66200000   0.00000000
302.90000000   4.66200000   0.00000000
303.00000000   4.66200000   0.00000000
303.10000000   4.66200000   0.00000000
303.20000000   4.66200000   0.00000000
303.30000000   4.66200000   0.00000000
303.40000000   4.66200000   0.00000000
303.50000000   4.66200000   0.00000000
303.60000000   4.66200000   0.00000000
303.70000000   4.66200000   0.00000000
303.80000000   4.66200000   0.00000000
303.90000000   4.66200000   0.00000000
304.00000000   4.66200000   0.00000000
304.10000000   4.66200000   0.00000000
304.20000000   4.66200000   0.00000000
304.30000000   4.66200000   0.00000000
304.40000000   4.66200000   0.00000000
304.50000000   4.66200000   0.00000000
304.60000000   4.66200000   0.00000000
304.70000000   4.66200000   0.00000000
304.80000000   4.66200000   0.00000000
304.90000000   4.66200000   0.00000000
305.00000000   4.66200000   0.00000000
305.10000000   4.66200000   0.00000000
305.20000000   4.66200000   0.00000000
305.30000000   4.66200000   0.00000000
305.40000000   4.66200000   0.00000000
305.50000000   4.66200000   0.00000000
305.60000000   4.66200000   0.00000000
305.70000000   4.66200000   0.00000000
305.80000000   4.66200000   0.00000000
305.90000000   4.66200000   0.00000000
306.00000000   4.66200000   0.00000000
306.10000000   4.66200000   0.00000000
306.20000000   4.66200000   0.00000000
306.30000000   4.66200000   0.00000000
306.40000000   4.66200000   0.00000000
306.50000000   4.66200000   0.00000000
306.60000000   4.66200000   0.00000000
306.70000000   4.66200000   0.00000000
306.80000000   4.66200000   0.00000000
306.90000000   4.66200000   0.00000000
307.00000000   4.66200000   0.00000000
307.10000000   4.66200000   0.00000000
307.20000000   4.66200000   0.00000000
307.30000000   4.66200000   0.00000000
307.40000000   4.66200000   0.00000000
307.50000000   4.66200000   0.00000000
307.60000000   4.66200000   0.00000000
307.70000000   4.66200000   0.00000000
307.80000000   4.66200000   0.00000000
307.90000000   4.66200000   0.00000000
308.00000000   4.66200000   0.00000000
308.10000000   4.66200000   0.00000000
308.20000000   4.66200000   0.00000000
308.30000000   4.66200000   0.00000000
308.40000000   4.66200000   0.00000000
308.50000000   4.66200000   0.00000000
308.60000000   4.66200000   0.00000000
308.70000000   4.66200000   0.00000000
308.80000000   4.66200000   0.00000000
308.90000000   4.66200000   0.00000000
309.00000000   4.66200000   0.00000000
309.10000000   4.66200000   0.00000000
309.20000000   4.66200000   0.00000000
309.30000000   4.66200000   0.00000000
309.40000000   4.66200000   0.00000000
309.50000000   4.66200000   0.00000000
309.60000000   4.66200000   0.00000000
309.70000000   4.66200000   0.00000000
309.80000000   4.66200000   0.00000000
309.90000000   4.66200000   0.00000000
310.00000000   4.66200000   0.00000000
310.10000000   4.66200000   0.00000000
310.20000000   4.66200000   0.00000000
310.30000000   4.66200000   0.00000000
310.40000000   4.66200000   0.00000000
310.50000000   4.66200000   0.00000000
310.60000000   4.66200000   0.00000000
310.70000000   4.66200000   0.00000000
310.80000000   4.66200000   0.00000000
310.90000000   4.66200000   0.00000000
311.00000000   4.66200000   0.00000000
311.10000000   4.66200000   0.00000000
311.20000000   4.66200000   0.00000000
311.30000000   4.66200000   0.00000000
311.40000000   4.66200000   0.00000000
311.50000000   4.66200000   0.00000000
311.60000000   4.66200000   0.00000000
311.70000000   4.66200000   0.00000000
311.80000000   4.66200000   0.00000000
311.90000000   4.66200000   0.00000000
312.00000000   4.66200000   0.00000000
312.10000000   4.66200000   0.00000000
312.20000000   4.66200000   0.00000000
312.30000000   4.66200000   0.00000000
312.40000000   4.66200000   0.00000000
312.50000000   4.66200000   0.00000000
312.60000000   4.66200000   0.00000000
312.70000000   4.66200000   0.00000000
312.80000000   4.66200000   0.00000000
312.90000000   4.66200000   0.00000000
313.00000000   4.66200000   0.00000000
313.10000000   4.66200000   0.00000000
313.20000000   4.66200000   0.00000000
313.30000000   4.66200000   0.00000000
313.40000000   4.66200000   0.00000000
313.50000000   4.66200000   0.00000000
313.60000000   4.66200000   0.00000000
313.70000000   4.66200000   0.00000000
313.80000000   4.66200000   0.00000000
313.90000000   4.66200000   0.00000000
314.00000000   4.66200000   0.00000000
314.10000000   4.66200000   0.00000000
314.20000000   4.66200000   0.00000000
314.30000000   4.66200000   0.00000000
314.40000000   4.66200000   0.00000000
314.50000000   4.66200000   0.00000000
314.60000000   4.66200000   0.00000000
314.70000000   4.66200000   0.00000000
314.80000000   4.66200000   0.00000000
314.90000000   4.66200000   0.00000000
315.00000000   4.66200000   0.00000000
315.10000000   4.66200000   0.00000000
315.20000000   4.66200000   0.00000000
315.30000000   4.66200000   0.00000000
315.40000000   4.66200000   0.00000000
315.50000000   4.66200000   0.00000000
315.60000000   4.66200000   0.00000000
315.70000000   4.66200000   0.00000000
315.80000000   4.66200000   0.00000000
315.90000000   4.66200000   0.00000000
316.00000000   4.66200000   0.00000000
316.10000000   4.66200000   0.00000000
316.20000000   4.66200000   0.00000000
316.30000000   4.66200000   0.00000000
316.40000000   4.66200000   0.00000000
316.50000000   4.66200000   0.00000000
316.60000000   4.66200000   0.00000000
316.70000000   4.66200000   0.00000000
316.80000000   4.66200000   0.00000000
316.90000000   4.66200000   0.00000000
317.00000000   4.66200000   0.00000000
317.10000000   4.66200000   0.00000000
317.20000000   4.66200000   0.00000000
317.30000000   4.66200000   0.00000000
317.40000000   4.66200000   0.00000000
317.50000000   4.66200000   0.00000000
317.60000000   4.66200000   0.00000000
317.70000000   4.66200000   0.00000000
317.80000000   4.66200000   0.00000000
317.90000000   4.66200000   0.00000000
318.00000000   4.66200000   0.00000000
318.10000000   4.66200000   0.00000000
318.20000000   4.66200000   0.00000000
318.30000000   4.66200000   0.00000000
318.40000000   4.66200000   0.00000000
318.50000000   4.66200000   0.00000000
318.60000000   4.66200000   0.00000000
318.70000000   4.66200000   0.00000000
318.80000000   4.66200000   0.00000000
318.90000000   4.66200000   0.00000000
319.00000000   4.66200000   0.00000000
319.10000000   4.66200000   0.00000000
319.20000000   4.66200000   0.00000000
319.30000000   4.66200000   0.00000000
319.40000000   4.66200000   0.00000000
319.50000000   4.66200000   0.00000000
319.60000000   4.66200000   0.00000000
319.70000000   4.66200000   0.00000000
319.80000000   4.66200000   0.00000000
319.90000000   4.66200000   0.00000000
320.00000000   4.66200000   0.00000000
320.10000000   4.66200000   0.00000000
320.20000000   4.66200000   0.00000000
320.30000000   4.66200000   0.00000000
320.40000000   4.66200000   0.00000000
320.50000000   4.66200000   0.00000000
320.60000000   4.66200000   0.00000000
320.70000000   4.66200000   0.00000000
320.80000000   4.66200000   0.00000000
320.90000000   4.66200000   0.00000000
321.00000000   4.66200000   0.00000000
321.10000000   4.66200000   0.00000000
321.20000000   4.66200000   0.00000000
321.30000000   4.66200000   0.00000000
321.40000000   4.66200000   0.00000000
321.50000000   4.66200000   0.00000000
321.60000000   4.66200000   0.00000000
321.70000000   4.66200000   0.00000000
321.80000000   4.66200000   0.00000000
321.90000000   4.66200000   0.00000000
322.00000000   4.66200000   0.00000000
322.10000000   4.66200000   0.00000000
322.20000000   4.66200000   0.00000000
322.30000000   4.66200000   0.00000000
322.40000000   4.66200000   0.00000000
322.50000000   4.66200000   0.00000000
322.60000000   4.66200000   0.00000000
322.70000000   4.66200000   0.00000000
322.80000000   4.66200000   0.00000000
322.90000000   4.66200000   0.00000000
323.00000000   4.66200000   0.00000000
323.10000000   4.66200000   0.00000000
323.20000000   4.66200000   0.00000000
323.30000000   4.66200000   0.00000000
323.40000000   4.66200000   0.00000000
323.50000000   4.66200000   0.00000000
323.60000000   4.66200000   0.00000000
323.70000000   4.66200000   0.00000000
323.80000000   4.66200000   0.00000000
323.90000000   4.66200000   0.00000000
324.00000000   4.66200000   0.00000000
324.10000000   4.66200000   0.00000000
324.20000000   4.66200000   0.00000000
324.30000000   4.66200000   0.00000000
324.40000000   4.66200000   0.00000000
324.50000000   4.66200000   0.00000000
324.60000000   4.66200000   0.00000000
324.70000000   4.66200000   0.00000000
324.80000000   4.66200000   0.00000000
324.90000000   4.66200000   0.00000000
325.00000000   4.66200000   0.00000000
325.10000000   4.66200000   0.00000000
325.20000000   4.66200000   0.00000000
325.30000000   4.66200000   0.00000000
325.40000000   4.66200000   0.00000000
325.50000000   4.66200000   0.00000000
325.60000000   4.66200000   0.00000000
325.70000000   4.66200000   0.00000000
325.80000000   4.66200000   0.00000000
325.90000000   4.66200000   0.00000000
326.00000000   4.66200000   0.00000000
326.10000000   4.66200000   0.00000000
326.20000000   4.66200000   0.00000000
326.30000000   4.66200000   0.00000000
326.40000000   4.66200000   0.00000000
326.50000000   4.66200000   0.00000000
326.60000000   4.66200000   0.00000000
326.70000000   4.66200000   0.00000000
326.80000000   4.66200000   0.00000000
326.90000000   4.66200000   0.00000000
327.00000000   4.66200000   0.00000000
327.10000000   4.66200000   0.00000000
327.20000000   4.66200000   0.00000000
327.30000000   4.66200000   0.00000000
327.40000000   4.66200000   0.00000000
327.50000000   4.66200000   0.00000000
327.60000000   4.66200000   0.00000000
327.70000000   4.66200000   0.00000000
327.80000000   4.66200000   0.00000000
327.90000000   4.66200000   0.00000000
328.00000000   4.66200000   0.00000000
328.10000000   4.66200000   0.00000000
328.20000000   4.66200000   0.00000000
328.30000000   4.66200000   0.00000000
328.40000000   4.66200000   0.00000000
328.50000000   4.66200000   0.00000000
328.60000000   4.66200000   0.00000000
328.70000000   4.66200000   0.00000000
328.80000000   4.66200000   0.00000000
328.90000000   4.66200000   0.00000000
329.00000000   4.66200000   0.00000000
329.10000000   4.66200000   0.00000000
329.20000000   4.66200000   0.00000000
329.30000000   4.66200000   0.00000000
329.40000000   4.66200000   0.00000000
329.50000000   4.66200000   0.00000000
329.60000000   4.66200000   0.00000000
329.70000000   4.66200000   0.00000000
329.80000000   4.66200000   0.00000000
329.90000000   4.66200000   0.00000000
330.00000000   4.66200000   0.00000000
330.10000000   4.66200000   0.00000000
330.20000000   4.66200000   0.00000000
330.30000000   4.66200000   0.00000000
330.40000000   4.66200000   0.00000000
330.50000000   4.66200000   0.00000000
330.60000000   4.66200000   0.00000000
330.70000000   4.66200000   0.00000000
330.80000000   4.66200000   0.00000000
330.90000000   4.66200000   0.00000000
331.00000000   4.66200000   0.00000000
331.10000000   4.66200000   0.00000000
331.20000000   4.66200000   0.00000000
331.30000000   4.66200000   0.00000000
331.40000000   4.66200000   0.00000000
331.50000000   4.66200000   0.00000000
331.60000000   4.66200000   0.00000000
331.70000000   4.66200000   0.00000000
331.80000000   4.66200000   0.00000000
331.90000000   4.66200000   0.00000000
332.00000000   4.66200000   0.00000000
332.10000000   4.66200000   0.00000000
332.20000000   4.66200000   0.00000000
332.30000000   4.66200000   0.00000000
332.40000000   4.66200000   0.00000000
332.50000000   4.66200000   0.00000000
332.60000000   4.66200000   0.00000000
332.70000000   4.66200000   0.00000000
332.80000000   4.66200000   0.00000000
332.90000000   4.66200000   0.00000000
333.00000000   4.66200000   0.00000000
333.10000000   4.66200000   0.00000000
333.20000000   4.66200000   0.00000000
333.30000000   4.66200000   0.00000000
333.40000000   4.66200000   0.00000000
333.50000000   4.66200000   0.00000000
333.60000000   4.66200000   0.00000000
333.70000000   4.66200000   0.00000000
333.80000000   4.66200000   0.00000000
333.90000000   4.66200000   0.00000000
334.00000000   4.66200000   0.00000000
334.10000000   4.66200000   0.00000000
334.20000000   4.66200000   0.00000000
334.30000000   4.66200000   0.00000000
334.40000000   4.66200000   0.00000000
334.50000000   4.66200000   0.00000000
334.60000000   4.66200000   0.00000000
334.70000000   4.66200000   0.00000000
334.80000000   4.66200000   0.00000000
334.90000000   4.66200000   0.00000000
335.00000000   4.66200000   0.00000000
335.10000000   4.66200000   0.00000000
335.20000000   4.66200000   0.00000000
335.30000000   4.66200000   0.00000000
335.40000000   4.66200000   0.00000000
335.50000000   4.66200000   0.00000000
335.60000000   4.66200000   0.00000000
335.70000000   4.66200000   0.00000000
335.80000000   4.66200000   0.00000000
335.90000000   4.66200000   0.00000000
336.00000000   4.66200000   0.00000000
336.10000000   4.66200000   0.00000000
336.20000000   4.66200000   0.00000000
336.30000000   4.66200000   0.00000000
336.40000000   4.66200000   0.00000000
336.50000000   4.66200000   0.00000000
336.60000000   4.66200000   0.00000000
336.70000000   4.66200000   0.00000000
336.80000000   4.66200000   0.00000000
336.90000000   4.66200000   0.00000000
337.00000000   4.66200000   0.00000000
337.10000000   4.66200000   0.00000000
337.20000000   4.66200000   0.00000000
337.30000000   4.66200000   0.00000000
337.40000000   4.66200000   0.00000000
337.50000000   4.66200000   0.00000000
337.60000000   4.66200000   0.00000000
337.70000000   4.66200000   0.00000000
337.80000000   4.66200000   0.00000000
337.90000000   4.66200000   0.00000000
338.00000000   4.66200000   0.00000000
338.10000000   4.66200000   0.00000000
338.20000000   4.66200000   0.00000000
338.30000000   4.66200000   0.00000000
338.40000000   4.66200000   0.00000000
338.50000000   4.66200000   0.00000000
338.60000000   4.66200000   0.00000000
338.70000000   4.66200000   0.00000000
338.80000000   4.66200000   0.00000000
338.90000000   4.66200000   0.00000000
339.00000000   4.66200000   0.00000000
339.10000000   4.66200000   0.00000000
339.20000000   4.66200000   0.00000000
339.30000000   4.66200000   0.00000000
339.40000000   4.66200000   0.00000000
339.50000000   4.66200000   0.00000000
339.60000000   4.66200000   0.00000000
339.70000000   4.66200000   0.00000000
339.80000000   4.66200000   0.00000000
339.90000000   4.66200000   0.00000000
340.00000000   4.66200000   0.00000000
340.10000000   4.66200000   0.00000000
340.20000000   4.66200000   0.00000000
340.30000000   4.66200000   0.00000000
340.40000000   4.66200000   0.00000000
340.50000000   4.66200000   0.00000000
340.60000000   4.66200000   0.00000000
340.70000000   4.66200000   0.00000000
340.80000000   4.66200000   0.00000000
340.90000000   4.66200000   0.00000000
341.00000000   4.66200000   0.00000000
341.10000000   4.66200000   0.00000000
341.20000000   4.66200000   0.00000000
341.30000000   4.66200000   0.00000000
341.40000000   4.66200000   0.00000000
341.50000000   4.66200000   0.00000000
341.60000000   4.66200000   0.00000000
341.70000000   4.66200000   0.00000000
341.80000000   4.66200000   0.00000000
341.90000000   4.66200000   0.00000000
342.00000000   4.66200000   0.00000000
342.10000000   4.66200000   0.00000000
342.20000000   4.66200000   0.00000000
342.30000000   4.66200000   0.00000000
342.40000000   4.66200000   0.00000000
342.50000000   4.66200000   0.00000000
342.60000000   4.66200000   0.00000000
342.70000000   4.66200000   0.00000000
342.80000000   4.66200000   0.00000000
342.90000000   4.66200000   0.00000000
343.00000000   4.66200000   0.00000000
343.10000000   4.66200000   0.00000000
343.20000000   4.66200000   0.00000000
343.30000000   4.66200000   0.00000000
343.40000000   4.66200000   0.00000000
343.50000000   4.66200000   0.00000000
343.60000000   4.66200000   0.00000000
343.70000000   4.66200000   0.00000000
343.80000000   4.66200000   0.00000000
343.90000000   4.66200000   0.00000000
344.00000000   4.66200000   0.00000000
344.10000000   4.66200000   0.00000000
344.20000000   4.66200000   0.00000000
344.30000000   4.66200000   0.00000000
344.40000000   4.66200000   0.00000000
344.50000000   4.66200000   0.00000000
344.60000000   4.66200000   0.00000000
344.70000000   4.66200000   0.00000000
344.80000000   4.66200000   0.00000000
344.90000000   4.66200000   0.00000000
345.00000000   4.66200000   0.00000000
345.10000000   4.66200000   0.00000000
345.20000000   4.66200000   0.00000000
345.30000000   4.66200000   0.00000000
345.40000000   4.66200000   0.00000000
345.50000000   4.66200000   0.00000000
345.60000000   4.66200000   0.00000000
345.70000000   4.66200000   0.00000000
345.80000000   4.66200000   0.00000000
345.90000000   4.66200000   0.00000000
346.00000000   4.66200000   0.00000000
346.10000000   4.66200000   0.00000000
346.20000000   4.66200000   0.00000000
346.30000000   4.66200000   0.00000000
346.40000000   4.66200000   0.00000000
346.50000000   4.66200000   0.00000000
346.60000000   4.66200000   0.00000000
346.70000000   4.66200000   0.00000000
346.80000000   4.66200000   0.00000000
346.90000000   4.66200000   0.00000000
347.00000000   4.66200000   0.00000000
347.10000000   4.66200000   0.00000000
347.20000000   4.66200000   0.00000000
347.30000000   4.66200000   0.00000000
347.40000000   4.66200000   0.00000000
347.50000000   4.66200000   0.00000000
347.60000000   4.66200000   0.00000000
347.70000000   4.66200000   0.00000000
347.80000000   4.66200000   0.00000000
347.90000000   4.66200000   0.00000000
348.00000000   4.66200000   0.00000000
348.10000000   4.66200000   0.00000000
348.20000000   4.66200000   0.00000000
348.30000000   4.66200000   0.00000000
348.40000000   4.66200000   0.00000000
348.50000000   4.66200000   0.00000000
348.60000000   4.66200000   0.00000000
348.70000000   4.66200000   0.00000000
348.80000000   4.66200000   0.00000000
348.90000000   4.66200000   0.00000000
349.00000000   4.66200000   0.00000000
349.10000000   4.66200000   0.00000000
349.20000000   4.66200000   0.00000000
349.30000000   4.66200000   0.00000000
349.40000000   4.66200000   0.00000000
349.50000000   4.66200000   0.00000000
349.60000000   4.66200000   0.00000000
349.70000000   4.66200000   0.00000000
349.80000000   4.66200000   0.00000000
349.90000000   4.66200000   0.00000000
350.00000000   4.66200000   0.00000000
350.10000000   4.66200000   0.00000000
350.20000000   4.66200000   0.00000000
350.30000000   4.66199999   0.00000000
350.40000000   4.66199999   0.00000000
350.50000000   4.66199999   0.00000000
350.60000000   4.66199999   0.00000000
350.70000000   4.66199999   0.00000000
350.80000000   4.66199999   0.00000000
350.90000000   4.66199999   0.00000000
351.00000000   4.66199999   0.00000000
351.10000000   4.66199999   0.00000000
351.20000000   4.66199999   0.00000000
351.30000000   4.66199999   0.00000000
351.40000000   4.66199999   0.00000000
351.50000000   4.66199999   0.00000000
351.60000000   4.66199999   0.00000000
351.70000000   4.66199999   0.00000000
351.80000000   4.66199999   0.00000000
351.90000000   4.66199999   0.00000000
352.00000000   4.66199999   0.00000000
352.10000000   4.66199999   0.00000000
352.20000000   4.66199999   0.00000000
352.30000000   4.66199999   0.00000000
352.40000000   4.66199999   0.00000000
352.50000000   4.66199999   0.00000000
352.60000000   4.66199999   0.00000000
352.70000000   4.66199999   0.00000000
352.80000000   4.66199999   0.00000000
352.90000000   4.66199999   0.00000000
353.00000000   4.66199998   0.00000000
353.10000000   4.66199998   0.00000000
353.20000000   4.66199998   0.00000000
353.30000000   4.66199998   0.00000000
353.40000000   4.66199998   0.00000000
353.50000000   4.66199998   0.00000000
353.60000000   4.66199998   0.00000000
353.70000000   4.66199998   0.00000000
353.80000000   4.66199998   0.00000000
353.90000000   4.66199998   0.00000000
354.00000000   4.66199998   0.00000000
354.10000000   4.66199998   0.00000000
354.20000000   4.66199998   0.00000000
354.30000000   4.66199997   0.00000000
354.40000000   4.66199997   0.00000000
354.50000000   4.66199997   0.00000000
354.60000000   4.66199997   0.00000000
354.70000000   4.66199997   0.00000000
354.80000000   4.66199997   0.00000000
354.90000000   4.66199997   0.00000000
355.00000000   4.66199997   0.00000000
355.10000000   4.66199996   0.00000000
355.20000000   4.66199996   0.00000000
355.30000000   4.66199996   0.00000000
355.40000000   4.66199996   0.00000000
355.50000000   4.66199996   0.00000000
355.60000000   4.66199996   0.00000000
355.70000000   4.66199996   0.00000000
355.80000000   4.66199995   0.00000000
355.90000000   4.66199995   0.00000000
356.00000000   4.66199995   0.00000000
356.10000000   4.66199995   0.00000000
356.20000000   4.66199995   0.00000000
356.30000000   4.66199994   0.00000000
356.40000000   4.66199994   0.00000000
356.50000000   4.66199994   0.00000000
356.60000000   4.66199994   0.00000000
356.70000000   4.66199993   0.00000000
356.80000000   4.66199993   0.00000000
356.90000000   4.66199993   0.00000000
357.00000000   4.66199993   0.00000000
357.10000000   4.66199992   0.00000000
357.20000000   4.66199992   0.00000000
357.30000000   4.66199992   0.00000000
357.40000000   4.66199991   0.00000000
357.50000000   4.66199991   0.00000000
357.60000000   4.66199991   0.00000000
357.70000000   4.66199990   0.00000000
357.80000000   4.66199990   0.00000000
357.90000000   4.66199990   0.00000000
358.00000000   4.66199989   0.00000000
358.10000000   4.66199989   0.00000000
358.20000000   4.66199988   0.00000000
358.30000000   4.66199988   0.00000000
358.40000000   4.66199988   0.00000000
358.50000000   4.66199987   0.00000000
358.60000000   4.66199987   0.00000000
358.70000000   4.66199986   0.00000000
358.80000000   4.66199986   0.00000000
358.90000000   4.66199985   0.00000000
359.00000000   4.66199984   0.00000000
359.10000000   4.66199984   0.00000000
359.20000000   4.66199983   0.00000000
359.30000000   4.66199983   0.00000000
359.40000000   4.66199982   0.00000000
359.50000000   4.66199981   0.00000000
359.60000000   4.66199981   0.00000000
359.70000000   4.66199980   0.00000000
359.80000000   4.66199979   0.00000000
359.90000000   4.66199978   0.00000000
360.00000000   4.66199978   0.00000000
360.10000000   4.66199977   0.00000000
360.20000000   4.66199976   0.00000000
360.30000000   4.66199975   0.00000000
360.40000000   4.66199974   0.00000000
360.50000000   4.66199973   0.00000000
360.60000000   4.66199972   0.00000000
360.70000000   4.66199971   0.00000000
360.80000000   4.66199970   0.00000000
360.90000000   4.66199969   0.00000000
361.00000000   4.66199968   0.00000000
361.10000000   4.66199966   0.00000000
361.20000000   4.66199965   0.00000000
361.30000000   4.66199964   0.00000000
361.40000000   4.66199963   0.00000000
361.50000000   4.66199961   0.00000000
361.60000000   4.66199960   0.00000000
361.70000000   4.66199958   0.00000000
361.80000000   4.66199957   0.00000000
361.90000000   4.66199955   0.00000000
362.00000000   4.66199954   0.00000000
362.10000000   4.66199952   0.00000000
362.20000000   4.66199950   0.00000000
362.30000000   4.66199948   0.00000000
362.40000000   4.66199946   0.00000000
362.50000000   4.66199944   0.00000000
362.60000000   4.66199942   0.00000000
362.70000000   4.66199940   0.00000000
362.80000000   4.66199938   0.00000000
362.90000000   4.66199936   0.00000000
363.00000000   4.66199934   0.00000000
363.10000000   4.66199931   0.00000000
363.20000000   4.66199929   0.00000000
363.30000000   4.66199926   0.00000000
363.40000000   4.66199924   0.00000000
363.50000000   4.66199921   0.00000000
363.60000000   4.66199918   0.00000000
363.70000000   4.66199915   0.00000000
363.80000000   4.66199912   0.00000000
363.90000000   4.66199909   0.00000000
364.00000000   4.66199906   0.00000000
364.10000000   4.66199902   0.00000000
364.20000000   4.66199899   0.00000000
364.30000000   4.66199895   0.00000000
364.40000000   4.66199891   0.00000000
364.50000000   4.66199888   0.00000000
364.60000000   4.66199884   0.00000000
364.70000000   4.66199880   0.00000000
364.80000000   4.66199875   0.00000000
364.90000000   4.66199871   0.00000000
365.00000000   4.66199866   0.00000000
365.10000000   4.66199862   0.00000000
365.20000000   4.66199857   0.00000000
365.30000000   4.66199852   0.00000000
365.40000000   4.66199847   0.00000000
365.50000000   4.66199841   0.00000000
365.60000000   4.66199836   0.00000000
365.70000000   4.66199830   0.00000000
365.80000000   4.66199824   0.00000000
365.90000000   4.66199818   0.00000000
366.00000000   4.66199812   0.00000000
366.10000000   4.66199805   0.00000000
366.20000000   4.66199798   0.00000000
366.30000000   4.66199791   0.00000000
366.40000000   4.66199784   0.00000000
366.50000000   4.66199777   0.00000000
366.60000000   4.66199769   0.00000000
366.70000000   4.66199761   0.00000000
366.80000000   4.66199753   0.00000000
366.90000000   4.66199744   0.00000000
367.00000000   4.66199735   0.00000000
367.10000000   4.66199726   0.00000000
367.20000000   4.66199717   0.00000000
367.30000000   4.66199707   0.00000000
367.40000000   4.66199697   0.00000000
367.50000000   4.66199687   0.00000000
367.60000000   4.66199676   0.00000000
367.70000000   4.66199665   0.00000000
367.80000000   4.66199654   0.00000000
367.90000000   4.66199642   0.00000000
368.00000000   4.66199630   0.00000000
368.10000000   4.66199618   0.00000000
368.20000000   4.66199605   0.00000000
368.30000000   4.66199591   0.00000000
368.40000000   4.66199578   0.00000000
368.50000000   4.66199563   0.00000000
368.60000000   4.66199549   0.00000000
368.70000000   4.66199534   0.00000000
368.80000000   4.66199518   0.00000000
368.90000000   4.66199502   0.00000000
369.00000000   4.66199485   0.00000000
369.10000000   4.66199468   0.00000000
369.20000000   4.66199450   0.00000000
369.30000000   4.66199432   0.00000000
369.40000000   4.66199413   0.00000000
369.50000000   4.66199394   0.00000000
369.60000000   4.66199373   0.00000000
369.70000000   4.66199353   0.00000000
369.80000000   4.66199331   0.00000000
369.90000000   4.66199309   0.00000000
370.00000000   4.66199286   0.00000000
370.10000000   4.66199263   0.00000000
370.20000000   4.66199239   0.00000000
370.30000000   4.66199214   0.00000000
370.40000000   4.66199188   0.00000000
370.50000000   4.66199161   0.00000000
370.60000000   4.66199134   0.00000000
370.70000000   4.66199106   0.00000000
370.80000000   4.66199076   0.00000000
370.90000000   4.66199046   0.00000000
371.00000000   4.66199015   0.00000000
371.10000000   4.66198983   0.00000000
371.20000000   4.66198950   0.00000000
371.30000000   4.66198916   0.00000000
371.40000000   4.66198881   0.00000000
371.50000000   4.66198845   0.00000000
371.60000000   4.66198808   0.00000000
371.70000000   4.66198769   0.00000000
371.80000000   4.66198730   0.00000000
371.90000000   4.66198689   0.00000000
372.00000000   4.66198647   0.00000000
372.10000000   4.66198603   0.00000000
372.20000000   4.66198559   0.00000000
372.30000000   4.66198512   0.00000000
372.40000000   4.66198465   0.00000000
372.50000000   4.66198416   0.00000000
372.60000000   4.66198366   0.00000000
372.70000000   4.66198314   0.00000000
372.80000000   4.66198260   0.00000000
372.90000000   4.66198205   0.00000000
373.00000000   4.66198148   0.00000000
373.10000000   4.66198090   0.00000000
373.20000000   4.66198029   0.00000000
373.30000000   4.66197967   0.00000000
373.40000000   4.66197903   0.00000000
373.50000000   4.66197837   0.00000000
373.60000000   4.66197769   0.00000000
373.70000000   4.66197699   0.00000000
373.80000000   4.66197627   0.00000000
373.90000000   4.66197553   0.00000000
374.00000000   4.66197477   0.00000000
374.10000000   4.66197398   0.00000000
374.20000000   4.66197317   0.00000000
374.30000000   4.66197234   0.00000000
374.40000000   4.66197148   0.00000000
374.50000000   4.66197059   0.00000000
374.60000000   4.66196968   0.00000000
374.70000000   4.66196875   0.00000000
374.80000000   4.66196778   0.00000000
374.90000000   4.66196679   0.00000000
375.00000000   4.66196576   0.00000000
375.10000000   4.66196471   0.00000000
375.20000000   4.66196363   0.00000000
375.30000000   4.66196251   0.00000000
375.40000000   4.66196137   0.00000000
375.50000000   4.66196019   0.00000000
375.60000000   4.66195897   0.00000000
375.70000000   4.66195772   0.00000000
375.80000000   4.66195644   0.00000000
375.90000000   4.66195511   0.00000000
376.00000000   4.66195375   0.00000000
376.10000000   4.66195235   0.00000000
376.20000000   4.66195091   0.00000000
376.30000000   4.66194942   0.00000000
376.40000000   4.66194790   0.00000000
376.50000000   4.66194633   0.00000000
376.60000000   4.66194471   0.00000000
376.70000000   4.66194305   0.00000000
376.80000000   4.66194135   0.00000000
376.90000000   4.66193959   0.00000000
377.00000000   4.66193778   0.00000000
377.10000000   4.66193592   0.00000000
377.20000000   4.66193401   0.00000000
377.30000000   4.66193205   0.00000000
377.40000000   4.66193003   0.00000000
377.50000000   4.66192795   0.00000000
377.60000000   4.66192582   0.00000000
377.70000000   4.66192362   0.00000000
377.80000000   4.66192136   0.00000000
377.90000000   4.66191904   0.00000000
378.00000000   4.66191666   0.00000000
378.10000000   4.66191421   0.00000000
378.20000000   4.66191168   0.00000000
378.30000000   4.66190909   0.00000000
378.40000000   4.66190643   0.00000000
378.50000000   4.66190369   0.00000000
378.60000000   4.66190088   0.00000000
378.70000000   4.66189799   0.00000000
378.80000000   4.66189502   0.00000000
378.90000000   4.66189197   0.00000000
379.00000000   4.66188883   0.00000000
379.10000000   4.66188561   0.00000000
379.20000000   4.66188230   0.00000000
379.30000000   4.66187890   0.00000000
379.40000000   4.66187541   0.00000000
379.50000000   4.66187182   0.00000000
379.60000000   4.66186813   0.00000000
379.70000000   4.66186434   0.00000000
379.80000000   4.66186045   0.00000000
379.90000000   4.66185645   0.00000000
380.00000000   4.66185235   0.00000000
380.10000000   4.66184813   0.00000000
380.20000000   4.66184380   0.00000000
380.30000000   4.66183936   0.00000000
380.40000000   4.66183479   0.00000000
380.50000000   4.66183011   0.00000000
380.60000000   4.66182529   0.00000000
380.70000000   4.66182035   0.00000000
380.80000000   4.66181528   0.00000000
380.90000000   4.66181007   0.00000000
381.00000000   4.66180472   0.00000000
381.10000000   4.66179923   0.00000000
381.20000000   4.66179359   0.00000000
381.30000000   4.66178781   0.00000000
381.40000000   4.66178187   0.00000000
381.50000000   4.66177577   0.00000000
381.60000000   4.66176952   0.00000000
381.70000000   4.66176310   0.00000000
381.80000000   4.66175651   0.00000000
381.90000000   4.66174975   0.00000000
382.00000000   4.66174281   0.00000000
382.10000000   4.66173569   0.00000000
382.20000000   4.66172839   0.00000000
382.30000000   4.66172090   0.00000000
382.40000000   4.66171321   0.00000000
382.50000000   4.66170532   0.00000000
382.60000000   4.66169723   0.00000000
382.70000000   4.66168892   0.00000000
382.80000000   4.66168041   0.00000000
382.90000000   4.66167167   0.00000000
383.00000000   4.66166271   0.00000000
383.10000000   4.66165352   0.00000000
383.20000000   4.66164410   0.00000000
383.30000000   4.66163443   0.00000000
383.40000000   4.66162452   0.00000000
383.50000000   4.66161436   0.00000000
383.60000000   4.66160393   0.00000000
383.70000000   4.66159324   0.00000000
383.80000000   4.66158228   0.00000000
383.90000000   4.66157105   0.00000000
384.00000000   4.66155953   0.00000000
384.10000000   4.66154772   0.00000000
384.20000000   4.66153561   0.00000000
384.30000000   4.66152320   0.00000000
384.40000000   4.66151048   0.00000000
384.50000000   4.66149744   0.00000000
384.60000000   4.66148407   0.00000000
384.70000000   4.66147037   0.00000000
384.80000000   4.66145633   0.00000000
384.90000000   4.66144194   0.00000000
385.00000000   4.66142720   0.00000000
385.10000000   4.66141209   0.00000000
385.20000000   4.66139660   0.00000000
385.30000000   4.66138074   0.00000000
385.40000000   4.66136448   0.00000000
385.50000000   4.66134783   0.00000000
385.60000000   4.66133076   0.00000000
385.70000000   4.66131328   0.00000000
385.80000000   4.66129537   0.00000000
385.90000000   4.66127703   0.00000000
386.00000000   4.66125824   0.00000000
386.10000000   4.66123899   0.00000000
386.20000000   4.66121927   0.00000000
386.30000000   4.66119908   0.00000000
386.40000000   4.66117840   0.00000000
386.50000000   4.66115722   0.00000000
386.60000000   4.66113554   0.00000000
386.70000000   4.66111333   0.00000000
386.80000000   4.66109059   0.00000000
386.90000000   4.66106730   0.00000000
387.00000000   4.66104346   0.00000000
387.10000000   4.66101905   0.00000000
387.20000000   4.66099406   0.00000000
387.30000000   4.66096848   0.00000000
387.40000000   4.66094229   0.00000000
387.50000000   4.66091548   0.00000000
387.60000000   4.66088804   0.00000000
387.70000000   4.66085995   0.00000000
387.80000000   4.66083120   0.00000000
387.90000000   4.66080178   0.00000000
388.00000000   4.66077167   0.00000000
388.10000000   4.66074085   0.00000000
388.20000000   4.66070932   0.00000000
388.30000000   4.66067704   0.00000000
388.40000000   4.66064402   0.00000000
388.50000000   4.66061024   0.00000000
388.60000000   4.66057567   0.00000000
388.70000000   4.66054030   0.00000000
388.80000000   4.66050412   0.00000000
388.90000000   4.66046710   0.00000000
389.00000000   4.66042924   0.00000000
389.10000000   4.66039050   0.00000000
389.20000000   4.66035088   0.00000000
389.30000000   4.66031036   0.00000000
389.40000000   4.66026891   0.00000000
389.50000000   4.66022651   0.00000000
389.60000000   4.66018316   0.00000000
389.70000000   4.66013883   0.00000000
389.80000000   4.66009349   0.00000000
389.90000000   4.66004713   0.00000000
390.00000000   4.65999972   0.00000000
390.10000000   4.65995125   0.00000000
390.20000000   4.65990169   0.00000000
390.30000000   4.65985103   0.00000000
390.40000000   4.65979923   0.00000000
390.50000000   4.65974628   0.00000000
390.60000000   4.65969215   0.00000000
390.70000000   4.65963681   0.00000000
390.80000000   4.65958026   0.00000000
390.90000000   4.65952245   0.00000000
391.00000000   4.65946337   0.00000000
391.10000000   4.65940298   0.00000000
391.20000000   4.65934127   0.00000000
391.30000000   4.65927821   0.00000000
391.40000000   4.65921376   0.00000000
391.50000000   4.65914791   0.00000000
391.60000000   4.65908063   0.00000000
391.70000000   4.65901188   0.00000000
391.80000000   4.65894164   0.00000000
391.90000000   4.65886988   0.00000000
392.00000000   4.65879656   0.00000000
392.10000000   4.65872167   0.00000000
392.20000000   4.65864517   0.00000000
392.30000000   4.65856702   0.00000000
392.40000000   4.65848720   0.00000000
392.50000000   4.65840567   0.00000000
392.60000000   4.65832240   0.00000000
392.70000000   4.65823736   0.00000000
392.80000000   4.65815051   0.00000000
392.90000000   4.65806183   0.00000000
393.00000000   4.65797126   0.00000000
393.10000000   4.65787879   0.00000000
393.20000000   4.65778436   0.00000000
393.30000000   4.65768795   0.00000000
393.40000000   4.65758952   0.00000000
393.50000000   4.65748903   0.00000000
393.60000000   4.65738645   0.00000000
393.70000000   4.65728172   0.00000000
393.80000000   4.65717482   0.00000000
393.90000000   4.65706570   0.00000000
394.00000000   4.65695432   0.00000000
394.10000000   4.65684063   0.00000000
394.20000000   4.65672461   0.00000000
394.30000000   4.65660620   0.00000000
394.40000000   4.65648536   0.00000000
394.50000000   4.65636205   0.00000000
394.60000000   4.65623622   0.00000000
394.70000000   4.65610782   0.00000000
394.80000000   4.65597681   0.00000000
394.90000000   4.65584315   0.00000000
395.00000000   4.65570678   0.00000000
395.10000000   4.65556765   0.00000000
395.20000000   4.65542572   0.00000000
395.30000000   4.65528093   0.00000000
395.40000000   4.65513324   0.00000000
395.50000000   4.65498259   0.00000000
395.60000000   4.65482893   0.00000000
395.70000000   4.65467221   0.00000000
395.80000000   4.65451238   0.00000000
395.90000000   4.65434937   0.00000000
396.00000000   4.65418314   0.00000000
396.10000000   4.65401362   0.00000000
396.20000000   4.65384077   0.00000000
396.30000000   4.65366451   0.00000000
396.40000000   4.65348480   0.00000000
396.50000000   4.65330158   0.00000000
396.60000000   4.65311478   0.00000000
396.70000000   4.65292433   0.00000000
396.80000000   4.65273019   0.00000000
396.90000000   4.65253229   0.00000000
397.00000000   4.65233055   0.00000000
397.10000000   4.65212493   0.00000000
397.20000000   4.65191534   0.00000000
397.30000000   4.65170174   0.00000000
397.40000000   4.65148404   0.00000000
397.50000000   4.65126217   0.00000000
397.60000000   4.65103608   0.00000000
397.70000000   4.65080569   0.00000000
397.80000000   4.65057092   0.00000000
397.90000000   4.65033171   0.00000000
398.00000000   4.65008798   0.00000000
398.10000000   4.64983966   0.00000000
398.20000000   4.64958667   0.00000000
398.30000000   4.64932894   0.00000000
398.40000000   4.64906639   0.00000000
398.50000000   4.64879893   0.00000000
398.60000000   4.64852650   0.00000000
398.70000000   4.64824901   0.00000000
398.80000000   4.64796638   0.00000000
398.90000000   4.64767853   0.00000000
399.00000000   4.64738537   0.00000000
399.10000000   4.64708681   0.00000000
399.20000000   4.64678279   0.00000000
399.30000000   4.64647319   0.00000000
399.40000000   4.64615795   0.00000000
399.50000000   4.64583697   0.00000000
399.60000000   4.64551016   0.00000000
399.70000000   4.64517742   0.00000000
399.80000000   4.64483867   0.00000000
399.90000000   4.64449382   0.00000000
400.00000000   4.64414277   0.00000000
400.10000000   4.64378541   0.00000000
400.20000000   4.64342167   0.00000000
400.30000000   4.64305143   0.00000000
400.40000000   4.64267461   0.00000000
400.50000000   4.64229109   0.00000000
400.60000000   4.64190078   0.00000000
400.70000000   4.64150357   0.00000000
400.80000000   4.64109937   0.00000000
400.90000000   4.64068806   0.00000000
401.00000000   4.64026954   0.00000000
401.10000000   4.63984371   0.00000000
401.20000000   4.63941044   0.00000000
401.30000000   4.63896965   0.00000000
401.40000000   4.63852120   0.00000000
401.50000000   4.63806500   0.00000000
401.60000000   4.63760092   0.00000000
401.70000000   4.63712885   0.00000000
401.80000000   4.63664868   0.00000000
401.90000000   4.63616029   0.00000000
402.00000000   4.63566356   0.00000000
402.10000000   4.63515836   0.00000000
402.20000000   4.63464459   0.00000000
402.30000000   4.63412211   0.00000000
402.40000000   4.63359080   0.00000000
402.50000000   4.63305054   0.00000000
402.60000000   4.63250120   0.00000000
402.70000000   4.63194265   0.00000000
402.80000000   4.63137477   0.00000000
402.90000000   4.63079741   0.00000000
403.00000000   4.63021046   0.00000000
403.10000000   4.62961378   0.00000000
403.20000000   4.62900723   0.00000000
403.30000000   4.62839068   0.00000000
403.40000000   4.62776399   0.00000000
403.50000000   4.62712703   0.00000000
403.60000000   4.62647964   0.00000000
403.70000000   4.62582170   0.00000000
403.80000000   4.62515305   0.00000000
403.90000000   4.62447357   0.00000000
404.00000000   4.62378309   0.00000000
404.10000000   4.62308147   0.00000000
404.20000000   4.62236857   0.00000000
404.30000000   4.62164424   0.00000000
404.40000000   4.62090832   0.00000000
404.50000000   4.62016067   0.00000000
404.60000000   4.61940113   0.00000000
404.70000000   4.61862954   0.00000000
404.80000000   4.61784575   0.00000000
404.90000000   4.61704960   0.00000000
405.00000000   4.61624094   0.00000000
405.10000000   4.61541960   0.00000000
405.20000000   4.61458541   0.00000000
405.30000000   4.61373823   0.00000000
405.40000000   4.61287788   0.00000000
405.50000000   4.61200420   0.00000000
405.60000000   4.61111702   0.00000000
405.70000000   4.61021617   0.00000000
405.80000000   4.60930148   0.00000000
405.90000000   4.60837278   0.00000000
406.00000000   4.60742990   0.00000000
406.10000000   4.60647266   0.00000000
406.20000000   4.60550090   0.00000000
406.30000000   4.60451442   0.00000000
406.40000000   4.60351306   0.00000000
406.50000000   4.60249663   0.00000000
406.60000000   4.60146496   0.00000000
406.70000000   4.60041785   0.00000000
406.80000000   4.59935514   0.00000000
406.90000000   4.59827662   0.00000000
407.00000000   4.59718213   0.00000000
407.10000000   4.59607146   0.00000000
407.20000000   4.59494443   0.00000000
407.30000000   4.59380086   0.00000000
407.40000000   4.59264054   0.00000000
407.50000000   4.59146329   0.00000000
407.60000000   4.59026891   0.00000000
407.70000000   4.58905720   0.00000000
407.80000000   4.58782798   0.00000000
407.90000000   4.58658104   0.00000000
408.00000000   4.58531618   0.00000000
408.10000000   4.58403320   0.00000000
408.20000000   4.58273191   0.00000000
408.30000000   4.58141209   0.00000000
408.40000000   4.58007355   0.00000000
408.50000000   4.57871607   0.00000000
408.60000000   4.57733946   0.00000000
408.70000000   4.57594350   0.00000000
408.80000000   4.57452798   0.00000000
408.90000000   4.57309270   0.00000000
409.00000000   4.57163745   0.00000000
409.10000000   4.57016200   0.00000000
409.20000000   4.56866615   0.00000000
409.30000000   4.56714969   0.00000000
409.40000000   4.56561239   0.00000000
409.50000000   4.56405404   0.00000000
409.60000000   4.56247443   0.00000000
409.70000000   4.56087332   0.00000000
409.80000000   4.55925051   0.00000000
409.90000000   4.55760577   0.00000000
410.00000000   4.55593888   0.00000000
410.10000000   4.55424962   0.00000000
410.20000000   4.55253776   0.00000000
410.30000000   4.55080307   0.00000000
410.40000000   4.54904534   0.00000000
410.50000000   4.54726433   0.00000000
410.60000000   4.54545981   0.00000000
410.70000000   4.54363156   0.00000000
410.80000000   4.54177935   0.00000000
410.90000000   4.53990294   0.00000000
411.00000000   4.53800211   0.00000000
411.10000000   4.53607662   0.00000000
411.20000000   4.53412624   0.00000000
411.30000000   4.53215073   0.00000000
411.40000000   4.53014986   0.00000000
411.50000000   4.52812340   0.00000000
411.60000000   4.52607110   0.00000000
411.70000000   4.52399274   0.00000000
411.80000000   4.52188807   0.00000000
411.90000000   4.51975686   0.00000000
412.00000000   4.51759886   0.00000000
412.10000000   4.51541384   0.00000000
412.20000000   4.51320156   0.00000000
412.30000000   4.51096177   0.00000000
412.40000000   4.50869424   0.00000000
412.50000000   4.50639872   0.00000000
412.60000000   4.50407498   0.00000000
412.70000000   4.50172276   0.00000000
412.80000000   4.49934183   0.00000000
412.90000000   4.49693194   0.00000000
413.00000000   4.49449285   0.00000000
413.10000000   4.49202432   0.00000000
413.20000000   4.48952609   0.00000000
413.30000000   4.48699794   0.00000000
413.40000000   4.48443960   0.00000000
413.50000000   4.48185084   0.00000000
413.60000000   4.47923140   0.00000000
413.70000000   4.47658105   0.00000000
413.80000000   4.47389955   0.00000000
413.90000000   4.47118663   0.00000000
414.00000000   4.46844206   0.00000000
414.10000000   4.46566559   0.00000000
414.20000000   4.46285698   0.00000000
414.30000000   4.46001598   0.00000000
414.40000000   4.45714233   0.00000000
414.50000000   4.45423581   0.00000000
414.60000000   4.45129616   0.00000000
414.70000000   4.44832314   0.00000000
414.80000000   4.44531650   0.00000000
414.90000000   4.44227599   0.00000000
415.00000000   4.43920138   0.00000000
415.10000000   4.43609241   0.00000000
415.20000000   4.43294885   0.00000000
415.30000000   4.42977044   0.00000000
415.40000000   4.42655696   0.00000000
415.50000000   4.42330814   0.00000000
415.60000000   4.42002376   0.00000000
415.70000000   4.41670356   0.00000000
415.80000000   4.41334732   0.00000000
415.90000000   4.40995478   0.00000000
416.00000000   4.40652570   0.00000000
416.10000000   4.40305986   0.00000000
416.20000000   4.39955700   0.00000000
416.30000000   4.39601689   0.00000000
416.40000000   4.39243930   0.00000000
416.50000000   4.38882399   0.00000000
416.60000000   4.38517072   0.00000000
416.70000000   4.38147925   0.00000000
416.80000000   4.37774936   0.00000000
416.90000000   4.37398082   0.00000000
417.00000000   4.37017338   0.00000000
417.10000000   4.36632682   0.00000000
417.20000000   4.36244092   0.00000000
417.30000000   4.35851543   0.00000000
417.40000000   4.35455014   0.00000000
417.50000000   4.35054483   0.00000000
417.60000000   4.34649926   0.00000000
417.70000000   4.34241321   0.00000000
417.80000000   4.33828646   0.00000000
417.90000000   4.33411880   0.00000000
418.00000000   4.32990999   0.00000000
418.10000000   4.32565984   0.00000000
418.20000000   4.32136811   0.00000000
418.30000000   4.31703460   0.00000000
418.40000000   4.31265909   0.00000000
418.50000000   4.30824138   0.00000000
418.60000000   4.30378125   0.00000000
418.70000000   4.29927850   0.00000000
418.80000000   4.29473291   0.00000000
418.90000000   4.29014430   0.00000000
419.00000000   4.28551245   0.00000000
419.10000000   4.28083718   0.00000000
419.20000000   4.27611827   0.00000000
419.30000000   4.27135553   0.00000000
419.40000000   4.26654878   0.00000000
419.50000000   4.26169781   0.00000000
419.60000000   4.25680245   0.00000000
419.70000000   4.25186250   0.00000000
419.80000000   4.24687778   0.00000000
419.90000000   4.24184810   0.00000000
420.00000000   4.23677329   0.00000000
420.10000000   4.23165318   0.00000000
420.20000000   4.22648757   0.00000000
420.30000000   4.22127631   0.00000000
420.40000000   4.21601922   0.00000000
420.50000000   4.21071614   0.00000000
420.60000000   4.20536690   0.00000000
420.70000000   4.19997133   0.00000000
420.80000000   4.19452929   0.00000000
420.90000000   4.18904061   0.00000000
421.00000000   4.18350513   0.00000000
421.10000000   4.17792272   0.00000000
421.20000000   4.17229321   0.00000000
421.30000000   4.16661647   0.00000000
421.40000000   4.16089236   0.00000000
421.50000000   4.15512073   0.00000000
421.60000000   4.14930144   0.00000000
421.70000000   4.14343438   0.00000000
421.80000000   4.13751940   0.00000000
421.90000000   4.13155638   0.00000000
422.00000000   4.12554520   0.00000000
422.10000000   4.11948573   0.00000000
422.20000000   4.11337787   0.00000000
422.30000000   4.10722150   0.00000000
422.40000000   4.10101650   0.00000000
422.50000000   4.09476278   0.00000000
422.60000000   4.08846023   0.00000000
422.70000000   4.08210875   0.00000000
422.80000000   4.07570825   0.00000000
422.90000000   4.06925863   0.00000000
423.00000000   4.06275981   0.00000000
423.10000000   4.05621170   0.00000000
423.20000000   4.04961422   0.00000000
423.30000000   4.04296730   0.00000000
423.40000000   4.03627085   0.00000000
423.50000000   4.02952482   0.00000000
423.60000000   4.02272914   0.00000000
423.70000000   4.01588375   0.00000000
423.80000000   4.00898858   0.00000000
423.90000000   4.00204359   0.00000000
424.00000000   3.99504872   0.00000000
424.10000000   3.98800394   0.00000000
424.20000000   3.98090920   0.00000000
424.30000000   3.97376446   0.00000000
424.40000000   3.96656969   0.00000000
424.50000000   3.95932487   0.00000000
424.60000000   3.95202996   0.00000000
424.70000000   3.94468496   0.00000000
424.80000000   3.93728984   0.00000000
424.90000000   3.92984459   0.00000000
425.00000000   3.92234921   0.00000000
425.10000000   3.91480369   0.00000000
425.20000000   3.90720804   0.00000000
425.30000000   3.89956226   0.00000000
425.40000000   3.89186636   0.00000000
425.50000000   3.88412037   0.00000000
425.60000000   3.87632429   0.00000000
425.70000000   3.86847817   0.00000000
425.80000000   3.86058201   0.00000000
425.90000000   3.85263587   0.00000000
426.00000000   3.84463977   0.00000000
426.10000000   3.83659376   0.00000000
426.20000000   3.82849790   0.00000000
426.30000000   3.82035223   0.00000000
426.40000000   3.81215680   0.00000000
426.50000000   3.80391170   0.00000000
426.60000000   3.79561697   0.00000000
426.70000000   3.78727269   0.00000000
426.80000000   3.77887895   0.00000000
426.90000000   3.77043582   0.00000000
427.00000000   3.76194338   0.00000000
427.10000000   3.75340174   0.00000000
427.20000000   3.74481099   0.00000000
427.30000000   3.73617122   0.00000000
427.40000000   3.72748255   0.00000000
427.50000000   3.71874509   0.00000000
427.60000000   3.70995895   0.00000000
427.70000000   3.70112425   0.00000000
427.80000000   3.69224113   0.00000000
427.90000000   3.68330971   0.00000000
428.00000000   3.67433013   0.00000000
428.10000000   3.66530253   0.00000000
428.20000000   3.65622706   0.00000000
428.30000000   3.64710387   0.00000000
428.40000000   3.63793311   0.00000000
428.50000000   3.62871496   0.00000000
428.60000000   3.61944956   0.00000000
428.70000000   3.61013711   0.00000000
428.80000000   3.60077776   0.00000000
428.90000000   3.59137171   0.00000000
429.00000000   3.58191915   0.00000000
429.10000000   3.57242026   0.00000000
429.20000000   3.56287524   0.00000000
429.30000000   3.55328429   0.00000000
429.40000000   3.54364762   0.00000000
429.50000000   3.53396545   0.00000000
429.60000000   3.52423799   0.00000000
429.70000000   3.51446547   0.00000000
429.80000000   3.50464810   0.00000000
429.90000000   3.49478613   0.00000000
430.00000000   3.48487979   0.00000000
430.10000000   3.47492932   0.00000000
430.20000000   3.46493498   0.00000000
430.30000000   3.45489701   0.00000000
430.40000000   3.44481567   0.00000000
430.50000000   3.43469123   0.00000000
430.60000000   3.42452395   0.00000000
430.70000000   3.41431410   0.00000000
430.80000000   3.40406196   0.00000000
430.90000000   3.39376782   0.00000000
431.00000000   3.38343197   0.00000000
431.10000000   3.37305468   0.00000000
431.20000000   3.36263627   0.00000000
431.30000000   3.35217703   0.00000000
431.40000000   3.34167726   0.00000000
431.50000000   3.33113729   0.00000000
431.60000000   3.32055743   0.00000000
431.70000000   3.30993800   0.00000000
431.80000000   3.29927931   0.00000000
431.90000000   3.28858172   0.00000000
432.00000000   3.27784554   0.00000000
432.10000000   3.26707112   0.00000000
432.20000000   3.25625881   0.00000000
432.30000000   3.24540894   0.00000000
432.40000000   3.23452189   0.00000000
432.50000000   3.22359799   0.00000000
432.60000000   3.21263763   0.00000000
432.70000000   3.20164116   0.00000000
432.80000000   3.19060895   0.00000000
432.90000000   3.17954138   0.00000000
433.00000000   3.16843883   0.00000000
433.10000000   3.15730169   0.00000000
433.20000000   3.14613034   0.00000000
433.30000000   3.13492518   0.00000000
433.40000000   3.12368660   0.00000000
433.50000000   3.11241501   0.00000000
433.60000000   3.10111081   0.00000000
433.70000000   3.08977441   0.00000000
433.80000000   3.07840622   0.00000000
433.90000000   3.06700666   0.00000000
434.00000000   3.05557616   0.00000000
434.10000000   3.04411513   0.00000000
434.20000000   3.03262402   0.00000000
434.30000000   3.02110324   0.00000000
434.40000000   3.00955324   0.00000000
434.50000000   2.99797445   0.00000000
434.60000000   2.98636733   0.00000000
434.70000000   2.97473232   0.00000000
434.80000000   2.96306987   0.00000000
434.90000000   2.95138043   0.00000000
435.00000000   2.93966447   0.00000000
435.10000000   2.92792245   0.00000000
435.20000000   2.91615482   0.00000000
435.30000000   2.90436207   0.00000000
435.40000000   2.89254465   0.00000000
435.50000000   2.88070305   0.00000000
435.60000000   2.86883774   0.00000000
435.70000000   2.85694921   0.00000000
435.80000000   2.84503794   0.00000000
435.90000000   2.83310441   0.00000000
436.00000000   2.82114911   0.00000000
436.10000000   2.80917254   0.00000000
436.20000000   2.79717520   0.00000000
436.30000000   2.78515757   0.00000000
436.40000000   2.77312017   0.00000000
436.50000000   2.76106349   0.00000000
436.60000000   2.74898805   0.00000000
436.70000000   2.73689434   0.00000000
436.80000000   2.72478288   0.00000000
436.90000000   2.71265418   0.00000000
437.00000000   2.70050877   0.00000000
437.10000000   2.68834714   0.00000000
437.20000000   2.67616983   0.00000000
437.30000000   2.66397736   0.00000000
437.40000000   2.65177025   0.00000000
437.50000000   2.63954903   0.00000000
437.60000000   2.62731422   0.00000000
437.70000000   2.61506635   0.00000000
437.80000000   2.60280595   0.00000000
437.90000000   2.59053356   0.00000000
438.00000000   2.57824971   0.00000000
438.10000000   2.56595494   0.00000000
438.20000000   2.55364978   0.00000000
438.30000000   2.54133477   0.00000000
438.40000000   2.52901046   0.00000000
438.50000000   2.51667738   0.00000000
438.60000000   2.50433607   0.00000000
438.70000000   2.49198708   0.00000000
438.80000000   2.47963096   0.00000000
438.90000000   2.46726824   0.00000000
439.00000000   2.45489948   0.00000000
439.10000000   2.44252522   0.00000000
439.20000000   2.43014600   0.00000000
439.30000000   2.41776239   0.00000000
439.40000000   2.40537492   0.00000000
439.50000000   2.39298415   0.00000000
439.60000000   2.38059063   0.00000000
439.70000000   2.36819490   0.00000000
439.80000000   2.35579752   0.00000000
439.90000000   2.34339903   0.00000000
440.00000000   2.33100000   0.00000000
440.10000000   2.31860097   0.00000000
440.20000000   2.30620248   0.00000000
440.30000000   2.29380510   0.00000000
440.40000000   2.28140937   0.00000000
440.50000000   2.26901585   0.00000000
440.60000000   2.25662508   0.00000000
440.70000000   2.24423761   0.00000000
440.80000000   2.23185400   0.00000000
440.90000000   2.21947478   0.00000000
441.00000000   2.20710052   0.00000000
441.10000000   2.19473176   0.00000000
441.20000000   2.18236904   0.00000000
441.30000000   2.17001292   0.00000000
441.40000000   2.15766393   0.00000000
441.50000000   2.14532262   0.00000000
441.60000000   2.13298954   0.00000000
441.70000000   2.12066523   0.00000000
441.80000000   2.10835022   0.00000000
441.90000000   2.09604506   0.00000000
442.00000000   2.08375029   0.00000000
442.10000000   2.07146644   0.00000000
442.20000000   2.05919405   0.00000000
442.30000000   2.04693365   0.00000000
442.40000000   2.03468578   0.00000000
442.50000000   2.02245097   0.00000000
442.60000000   2.01022975   0.00000000
442.70000000   1.99802264   0.00000000
442.80000000   1.98583017   0.00000000
442.90000000   1.97365286   0.00000000
443.00000000   1.96149123   0.00000000
443.10000000   1.94934582   0.00000000
443.20000000   1.93721712   0.00000000
443.30000000   1.92510566   0.00000000
443.40000000   1.91301195   0.00000000
443.50000000   1.90093651   0.00000000
443.60000000   1.88887983   0.00000000
443.70000000   1.87684243   0.00000000
443.80000000   1.86482480   0.00000000
443.90000000   1.85282746   0.00000000
444.00000000   1.84085089   0.00000000
444.10000000   1.82889559   0.00000000
444.20000000   1.81696206   0.00000000
444.30000000   1.80505079   0.00000000
444.40000000   1.79316226   0.00000000
444.50000000   1.78129695   0.00000000
444.60000000   1.76945535   0.00000000
444.70000000   1.75763793   0.00000000
444.80000000   1.74584518   0.00000000
444.90000000   1.73407755   0.00000000
445.00000000   1.72233553   0.00000000
445.10000000   1.71061957   0.00000000
445.20000000   1.69893013   0.00000000
445.30000000   1.68726768   0.00000000
445.40000000   1.67563267   0.00000000
445.50000000   1.66402555   0.00000000
445.60000000   1.65244676   0.00000000
445.70000000   1.64089676   0.00000000
445.80000000   1.62937598   0.00000000
445.90000000   1.61788487   0.00000000
446.00000000   1.60642384   0.00000000
446.10000000   1.59499334   0.00000000
446.20000000   1.58359378   0.00000000
446.30000000   1.57222559   0.00000000
446.40000000   1.56088919   0.00000000
446.50000000   1.54958499   0.00000000
446.60000000   1.53831340   0.00000000
446.70000000   1.52707482   0.00000000
446.80000000   1.51586966   0.00000000
446.90000000   1.50469831   0.00000000
447.00000000   1.49356117   0.00000000
447.10000000   1.48245862   0.00000000
447.20000000   1.47139105   0.00000000
447.30000000   1.46035884   0.00000000
447.40000000   1.44936237   0.00000000
447.50000000   1.43840201   0.00000000
447.60000000   1.42747811   0.00000000
447.70000000   1.41659106   0.00000000
447.80000000   1.40574119   0.00000000
447.90000000   1.39492888   0.00000000
448.00000000   1.38415446   0.00000000
448.10000000   1.37341828   0.00000000
448.20000000   1.36272069   0.00000000
448.30000000   1.35206200   0.00000000
448.40000000   1.34144257   0.00000000
448.50000000   1.33086271   0.00000000
448.60000000   1.32032274   0.00000000
448.70000000   1.30982297   0.00000000
448.80000000   1.29936373   0.00000000
448.90000000   1.28894532   0.00000000
449.00000000   1.27856803   0.00000000
449.10000000   1.26823218   0.00000000
449.20000000   1.25793804   0.00000000
449.30000000   1.24768590   0.00000000
449.40000000   1.23747605   0.00000000
449.50000000   1.22730877   0.00000000
449.60000000   1.21718433   0.00000000
449.70000000   1.20710299   0.00000000
449.80000000   1.19706502   0.00000000
449.90000000   1.18707068   0.00000000
450.00000000   1.17712021   0.00000000
450.10000000   1.16721387   0.00000000
450.20000000   1.15735190   0.00000000
450.30000000   1.14753453   0.00000000
450.40000000   1.13776201   0.00000000
450.50000000   1.12803455   0.00000000
450.60000000   1.11835238   0.00000000
450.70000000   1.10871571   0.00000000
450.80000000   1.09912476   0.00000000
450.90000000   1.08957974   0.00000000
451.00000000   1.08008085   0.00000000
451.10000000   1.07062829   0.00000000
451.20000000   1.06122224   0.00000000
451.30000000   1.05186289   0.00000000
451.40000000   1.04255044   0.00000000
451.50000000   1.03328504   0.00000000
451.60000000   1.02406689   0.00000000
451.70000000   1.01489613   0.00000000
451.80000000   1.00577294   0.00000000
451.90000000   0.99669747   0.00000000
452.00000000   0.98766987   0.00000000
452.10000000   0.97869029   0.00000000
452.20000000   0.96975887   0.00000000
452.30000000   0.96087575   0.00000000
452.40000000   0.95204105   0.00000000
452.50000000   0.94325491   0.00000000
452.60000000   0.93451745   0.00000000
452.70000000   0.92582878   0.00000000
452.80000000   0.91718901   0.00000000
452.90000000   0.90859826   0.00000000
453.00000000   0.90005662   0.00000000
453.10000000   0.89156418   0.00000000
453.20000000   0.88312105   0.00000000
453.30000000   0.87472731   0.00000000
453.40000000   0.86638303   0.00000000
453.50000000   0.85808830   0.00000000
453.60000000   0.84984320   0.00000000
453.70000000   0.84164777   0.00000000
453.80000000   0.83350210   0.00000000
453.90000000   0.82540624   0.00000000
454.00000000   0.81736023   0.00000000
454.10000000   0.80936413   0.00000000
454.20000000   0.80141799   0.00000000
454.30000000   0.79352183   0.00000000
454.40000000   0.78567571   0.00000000
454.50000000   0.77787963   0.00000000
454.60000000   0.77013364   0.00000000
454.70000000   0.76243774   0.00000000
454.80000000   0.75479196   0.00000000
454.90000000   0.74719631   0.00000000
455.00000000   0.73965079   0.00000000
455.10000000   0.73215541   0.00000000
455.20000000   0.72471016   0.00000000
455.30000000   0.71731504   0.00000000
455.40000000   0.70997004   0.00000000
455.50000000   0.70267513   0.00000000
455.60000000   0.69543031   0.00000000
455.70000000   0.68823554   0.00000000
455.80000000   0.68109080   0.00000000
455.90000000   0.67399606   0.00000000
456.00000000   0.66695128   0.00000000
456.10000000   0.65995641   0.00000000
456.20000000   0.65301142   0.00000000
456.30000000   0.64611625   0.00000000
456.40000000   0.63927086   0.00000000
456.50000000   0.63247518   0.00000000
456.60000000   0.62572915   0.00000000
456.70000000   0.61903270   0.00000000
456.80000000   0.61238578   0.00000000
456.90000000   0.60578830   0.00000000
457.00000000   0.59924019   0.00000000
457.10000000   0.59274137   0.00000000
457.20000000   0.58629175   0.00000000
457.30000000   0.57989125   0.00000000
457.40000000   0.57353977   0.00000000
457.50000000   0.56723722   0.00000000
457.60000000   0.56098350   0.00000000
457.70000000   0.55477850   0.00000000
457.80000000   0.54862213   0.00000000
457.90000000   0.54251427   0.00000000
458.00000000   0.53645480   0.00000000
458.10000000   0.53044362   0.00000000
458.20000000   0.52448060   0.00000000
458.30000000   0.51856562   0.00000000
458.40000000   0.51269856   0.00000000
458.50000000   0.50687927   0.00000000
458.60000000   0.50110764   0.00000000
458.70000000   0.49538353   0.00000000
458.80000000   0.48970679   0.00000000
458.90000000   0.48407728   0.00000000
459.00000000   0.47849487   0.00000000
459.10000000   0.47295939   0.00000000
459.20000000   0.46747071   0.00000000
459.30000000   0.46202867   0.00000000
459.40000000   0.45663310   0.00000000
459.50000000   0.45128386   0.00000000
459.60000000   0.44598078   0.00000000
459.70000000   0.44072369   0.00000000
459.80000000   0.43551243   0.00000000
459.90000000   0.43034682   0.00000000
460.00000000   0.42522671   0.00000000
460.10000000   0.42015190   0.00000000
460.20000000   0.41512222   0.00000000
460.30000000   0.41013750   0.00000000
460.40000000   0.40519755   0.00000000
460.50000000   0.40030219   0.00000000
460.60000000   0.39545122   0.00000000
460.70000000   0.39064447   0.00000000
460.80000000   0.38588173   0.00000000
460.90000000   0.38116282   0.00000000
461.00000000   0.37648755   0.00000000
461.10000000   0.37185570   0.00000000
461.20000000   0.36726709   0.00000000
461.30000000   0.36272150   0.00000000
461.40000000   0.35821875   0.00000000
461.50000000   0.35375862   0.00000000
461.60000000   0.34934091   0.00000000
461.70000000   0.34496540   0.00000000
461.80000000   0.34063189   0.00000000
461.90000000   0.33634016   0.00000000
462.00000000   0.33209001   0.00000000
462.10000000   0.32788120   0.00000000
462.20000000   0.32371354   0.00000000
462.30000000   0.31958679   0.00000000
462.40000000   0.31550074   0.00000000
462.50000000   0.31145517   0.00000000
462.60000000   0.30744986   0.00000000
462.70000000   0.30348457   0.00000000
462.80000000   0.29955908   0.00000000
462.90000000   0.29567318   0.00000000
463.00000000   0.29182662   0.00000000
463.10000000   0.28801918   0.00000000
463.20000000   0.28425064   0.00000000
463.30000000   0.28052075   0.00000000
463.40000000   0.27682928   0.00000000
463.50000000   0.27317601   0.00000000
463.60000000   0.26956070   0.00000000
463.70000000   0.26598311   0.00000000
463.80000000   0.26244300   0.00000000
463.90000000   0.25894014   0.00000000
464.00000000   0.25547430   0.00000000
464.10000000   0.25204522   0.00000000
464.20000000   0.24865268   0.00000000
464.30000000   0.24529644   0.00000000
464.40000000   0.24197624   0.00000000
464.50000000   0.23869186   0.00000000
464.60000000   0.23544304   0.00000000
464.70000000   0.23222956   0.00000000
464.80000000   0.22905115   0.00000000
464.90000000   0.22590759   0.00000000
465.00000000   0.22279862   0.00000000
465.10000000   0.21972401   0.00000000
465.20000000   0.21668350   0.00000000
465.30000000   0.21367686   0.00000000
465.40000000   0.21070384   0.00000000
465.50000000   0.20776419   0.00000000
465.60000000   0.20485767   0.00000000
465.70000000   0.20198402   0.00000000
465.80000000   0.19914302   0.00000000
465.90000000   0.19633441   0.00000000
466.00000000   0.19355794   0.00000000
466.10000000   0.19081337   0.00000000
466.20000000   0.18810045   0.00000000
466.30000000   0.18541895   0.00000000
466.40000000   0.18276860   0.00000000
466.50000000   0.18014916   0.00000000
466.60000000   0.17756040   0.00000000
466.70000000   0.17500206   0.00000000
466.80000000   0.17247391   0.00000000
466.90000000   0.16997568   0.00000000
467.00000000   0.16750715   0.00000000
467.10000000   0.16506806   0.00000000
467.20000000   0.16265817   0.00000000
467.30000000   0.16027724   0.00000000
467.40000000   0.15792502   0.00000000
467.50000000   0.15560128   0.00000000
467.60000000   0.15330576   0.00000000
467.70000000   0.15103823   0.00000000
467.80000000   0.14879844   0.00000000
467.90000000   0.14658616   0.00000000
468.00000000   0.14440114   0.00000000
468.10000000   0.14224314   0.00000000
468.20000000   0.14011193   0.00000000
468.30000000   0.13800726   0.00000000
468.40000000   0.13592890   0.00000000
468.50000000   0.13387660   0.00000000
468.60000000   0.13185014   0.00000000
468.70000000   0.12984927   0.00000000
468.80000000   0.12787376   0.00000000
468.90000000   0.12592338   0.00000000
469.00000000   0.12399789   0.00000000
469.10000000   0.12209706   0.00000000
469.20000000   0.12022065   0.00000000
469.30000000   0.11836844   0.00000000
469.40000000   0.11654019   0.00000000
469.50000000   0.11473567   0.00000000
469.60000000   0.11295466   0.00000000
469.70000000   0.11119693   0.00000000
469.80000000   0.10946224   0.00000000
469.90000000   0.10775038   0.00000000
470.00000000   0.10606112   0.00000000
470.10000000   0.10439423   0.00000000
470.20000000   0.10274949   0.00000000
470.30000000   0.10112668   0.00000000
470.40000000   0.09952557   0.00000000
470.50000000   0.09794596   0.00000000
470.60000000   0.09638761   0.00000000
470.70000000   0.09485031   0.00000000
470.80000000   0.09333385   0.00000000
470.90000000   0.09183800   0.00000000
471.00000000   0.09036255   0.00000000
471.10000000   0.08890730   0.00000000
471.20000000   0.08747202   0.00000000
471.30000000   0.08605650   0.00000000
471.40000000   0.08466054   0.00000000
471.50000000   0.08328393   0.00000000
471.60000000   0.08192645   0.00000000
471.70000000   0.08058791   0.00000000
471.80000000   0.07926809   0.00000000
471.90000000   0.07796680   0.00000000
472.00000000   0.07668382   0.00000000
472.10000000   0.07541896   0.00000000
472.20000000   0.07417202   0.00000000
472.30000000   0.07294280   0.00000000
472.40000000   0.07173109   0.00000000
472.50000000   0.07053671   0.00000000
472.60000000   0.06935946   0.00000000
472.70000000   0.06819914   0.00000000
472.80000000   0.06705557   0.00000000
472.90000000   0.06592854   0.00000000
473.00000000   0.06481787   0.00000000
473.10000000   0.06372338   0.00000000
473.20000000   0.06264486   0.00000000
473.30000000   0.06158215   0.00000000
473.40000000   0.06053504   0.00000000
473.50000000   0.05950337   0.00000000
473.60000000   0.05848694   0.00000000
473.70000000   0.05748558   0.00000000
473.80000000   0.05649910   0.00000000
473.90000000   0.05552734   0.00000000
474.00000000   0.05457010   0.00000000
474.10000000   0.05362722   0.00000000
474.20000000   0.05269852   0.00000000
474.30000000   0.05178383   0.00000000
474.40000000   0.05088298   0.00000000
474.50000000   0.04999580   0.00000000
474.60000000   0.04912212   0.00000000
474.70000000   0.04826177   0.00000000
474.80000000   0.04741459   0.00000000
474.90000000   0.04658040   0.00000000
475.00000000   0.04575906   0.00000000
475.10000000   0.04495040   0.00000000
475.20000000   0.04415425   0.00000000
475.30000000   0.04337046   0.00000000
475.40000000   0.04259887   0.00000000
475.50000000   0.04183933   0.00000000
475.60000000   0.04109168   0.00000000
475.70000000   0.04035576   0.00000000
475.80000000   0.03963143   0.00000000
475.90000000   0.03891853   0.00000000
476.00000000   0.03821691   0.00000000
476.10000000   0.03752643   0.00000000
476.20000000   0.03684695   0.00000000
476.30000000   0.03617830   0.00000000
476.40000000   0.03552036   0.00000000
476.50000000   0.03487297   0.00000000
476.60000000   0.03423601   0.00000000
476.70000000   0.03360932   0.00000000
476.80000000   0.03299277   0.00000000
476.90000000   0.03238622   0.00000000
477.00000000   0.03178954   0.00000000
477.10000000   0.03120259   0.00000000
477.20000000   0.03062523   0.00000000
477.30000000   0.03005735   0.00000000
477.40000000   0.02949880   0.00000000
477.50000000   0.02894946   0.00000000
477.60000000   0.02840920   0.00000000
477.70000000   0.02787789   0.00000000
477.80000000   0.02735541   0.00000000
477.90000000   0.02684164   0.00000000
478.00000000   0.02633644   0.00000000
478.10000000   0.02583971   0.00000000
478.20000000   0.02535132   0.00000000
478.30000000   0.02487115   0.00000000
478.40000000   0.02439908   0.00000000
478.50000000   0.02393500   0.00000000
478.60000000   0.02347880   0.00000000
478.70000000   0.02303035   0.00000000
478.80000000   0.02258956   0.00000000
478.90000000   0.02215629   0.00000000
479.00000000   0.02173046   0.00000000
479.10000000   0.02131194   0.00000000
479.20000000   0.02090063   0.00000000
479.30000000   0.02049643   0.00000000
479.40000000   0.02009922   0.00000000
479.50000000   0.01970891   0.00000000
479.60000000   0.01932539   0.00000000
479.70000000   0.01894857   0.00000000
479.80000000   0.01857833   0.00000000
479.90000000   0.01821459   0.00000000
480.00000000   0.01785723   0.00000000
480.10000000   0.01750618   0.00000000
480.20000000   0.01716133   0.00000000
480.30000000   0.01682258   0.00000000
480.40000000   0.01648984   0.00000000
480.50000000   0.01616303   0.00000000
480.60000000   0.01584205   0.00000000
480.70000000   0.01552681   0.00000000
480.80000000   0.01521721   0.00000000
480.90000000   0.01491319   0.00000000
481.00000000   0.01461463   0.00000000
481.10000000   0.01432147   0.00000000
481.20000000   0.01403362   0.00000000
481.30000000   0.01375099   0.00000000
481.40000000   0.01347350   0.00000000
481.50000000   0.01320107   0.00000000
481.60000000   0.01293361   0.00000000
481.70000000   0.01267106   0.00000000
481.80000000   0.01241333   0.00000000
481.90000000   0.01216034   0.00000000
482.00000000   0.01191202   0.00000000
482.10000000   0.01166829   0.00000000
482.20000000   0.01142908   0.00000000
482.30000000   0.01119431   0.00000000
482.40000000   0.01096392   0.00000000
482.50000000   0.01073783   0.00000000
482.60000000   0.01051596   0.00000000
482.70000000   0.01029826   0.00000000
482.80000000   0.01008466   0.00000000
482.90000000   0.00987507   0.00000000
483.00000000   0.00966945   0.00000000
483.10000000   0.00946771   0.00000000
483.20000000   0.00926981   0.00000000
483.30000000   0.00907567   0.00000000
483.40000000   0.00888522   0.00000000
483.50000000   0.00869842   0.00000000
483.60000000   0.00851520   0.00000000
483.70000000   0.00833549   0.00000000
483.80000000   0.00815923   0.00000000
483.90000000   0.00798638   0.00000000
484.00000000   0.00781686   0.00000000
484.10000000   0.00765063   0.00000000
484.20000000   0.00748762   0.00000000
484.30000000   0.00732779   0.00000000
484.40000000   0.00717107   0.00000000
484.50000000   0.00701741   0.00000000
484.60000000   0.00686676   0.00000000
484.70000000   0.00671907   0.00000000
484.80000000   0.00657428   0.00000000
484.90000000   0.00643235   0.00000000
485.00000000   0.00629322   0.00000000
