#      z (A) rho (1e-6/A2) irho (1e-6/A2)
-15.00000000   0.00944929   0.00000000
-14.90000000   0.01008869   0.00000000
-14.80000000   0.01076737   0.00000000
-14.70000000   0.01148743   0.00000000
-14.60000000   0.01225110   0.00000000
-14.50000000   0.01306069   0.00000000
-14.40000000   0.01391863   0.00000000
-14.30000000   0.01482744   0.00000000
-14.20000000   0.01578974   0.00000000
-14.10000000   0.01680828   0.00000000
-14.00000000   0.01788591   0.00000000
-13.90000000   0.01902561   0.00000000
-13.80000000   0.02023048   0.00000000
-13.70000000   0.02150371   0.00000000
-13.60000000   0.02284867   0.00000000
-13.50000000   0.02426882   0.00000000
-13.40000000   0.02576776   0.00000000
-13.30000000   0.02734923   0.00000000
-13.20000000   0.02901711   0.00000000
-13.10000000   0.03077542   0.00000000
-13.00000000   0.03262832   0.00000000
-12.90000000   0.03458011   0.00000000
-12.80000000   0.03663526   0.00000000
-12.70000000   0.03879836   0.00000000
-12.60000000   0.04107419   0.00000000
-12.50000000   0.04346766   0.00000000
-12.40000000   0.04598383   0.00000000
-12.30000000   0.04862796   0.00000000
-12.20000000   0.05140542   0.00000000
-12.10000000   0.05432177   0.00000000
-12.00000000   0.05738275   0.00000000
-11.90000000   0.06059423   0.00000000
-11.80000000   0.06396227   0.00000000
-11.70000000   0.06749309   0.00000000
-11.60000000   0.07119307   0.00000000
-11.50000000   0.07506877   0.00000000
-11.40000000   0.07912691   0.00000000
-11.30000000   0.08337438   0.00000000
-11.20000000   0.08781823   0.00000000
-11.10000000   0.09246569   0.00000000
-11.00000000   0.09732413   0.00000000
-10.90000000   0.10240112   0.00000000
-10.80000000   0.10770434   0.00000000
-10.70000000   0.11324168   0.00000000
-10.60000000   0.11902116   0.00000000
-10.50000000   0.12505094   0.00000000
-10.40000000   0.13133937   0.00000000
-10.30000000   0.13789489   0.00000000
-10.20000000   0.14472614   0.00000000
-10.10000000   0.15184186   0.00000000
-10.00000000   0.15925092   0.00000000
 -9.90000000   0.16696235   0.00000000
 -9.80000000   0.17498527   0.00000000
 -9.70000000   0.18332891   0.00000000
 -9.60000000   0.19200265   0.00000000
 -9.50000000   0.20101592   0.00000000
 -9.40000000   0.21037827   0.00000000
 -9.30000000   0.22009934   0.00000000
 -9.20000000   0.23018883   0.00000000
 -9.10000000   0.24065652   0.00000000
 -9.00000000   0.25151223   0.00000000
 -8.90000000   0.26276586   0.00000000
 -8.80000000   0.27442732   0.00000000
 -8.70000000   0.28650656   0.00000000
 -8.60000000   0.29901355   0.00000000
 -8.50000000   0.31195824   0.00000000
 -8.40000000   0.32535060   0.00000000
 -8.30000000   0.33920058   0.00000000
 -8.20000000   0.35351808   0.00000000
 -8.10000000   0.36831297   0.00000000
 -8.00000000   0.38359504   0.00000000
 -7.90000000   0.39937403   0.00000000
 -7.80000000   0.41565958   0.00000000
 -7.70000000   0.43246124   0.00000000
 -7.60000000   0.44978841   0.00000000
 -7.50000000   0.46765041   0.00000000
 -7.40000000   0.48605636   0.00000000
 -7.30000000   0.50501526   0.00000000
 -7.20000000   0.52453590   0.00000000
 -7.10000000   0.54462688   0.00000000
 -7.00000000   0.56529661   0.00000000
 -6.90000000   0.58655326   0.00000000
 -6.80000000   0.60840473   0.00000000
 -6.70000000   0.63085871   0.00000000
 -6.60000000   0.65392256   0.00000000
 -6.50000000   0.67760339   0.00000000
 -6.40000000   0.70190798   0.00000000
 -6.30000000   0.72684277   0.00000000
 -6.20000000   0.75241388   0.00000000
 -6.10000000   0.77862706   0.00000000
 -6.00000000   0.80548769   0.00000000
 -5.90000000   0.83300075   0.00000000
 -5.80000000   0.86117082   0.00000000
 -5.70000000   0.89000205   0.00000000
 -5.60000000   0.91949817   0.00000000
 -5.50000000   0.94966242   0.00000000
 -5.40000000   0.98049763   0.00000000
 -5.30000000   1.01200610   0.00000000
 -5.20000000   1.04418965   0.00000000
 -5.10000000   1.07704961   0.00000000
 -5.00000000   1.11058677   0.00000000
 -4.90000000   1.14480141   0.00000000
 -4.80000000   1.17969325   0.00000000
 -4.70000000   1.21526146   0.00000000
 -4.60000000   1.25150465   0.00000000
 -4.50000000   1.28842087   0.00000000
 -4.40000000   1.32600758   0.00000000
 -4.30000000   1.36426164   0.00000000
 -4.20000000   1.40317935   0.00000000
 -4.10000000   1.44275637   0.00000000
 -4.00000000   1.48298778   0.00000000
 -3.90000000   1.52386806   0.00000000
 -3.80000000   1.56539104   0.00000000
 -3.70000000   1.60754997   0.00000000
 -3.60000000   1.65033747   0.00000000
 -3.50000000   1.69374555   0.00000000
 -3.40000000   1.73776560   0.00000000
 -3.30000000   1.78238839   0.00000000
 -3.20000000   1.82760408   0.00000000
 -3.10000000   1.87340224   0.00000000
 -3.00000000   1.91977181   0.00000000
 -2.90000000   1.96670114   0.00000000
 -2.80000000   2.01417801   0.00000000
 -2.70000000   2.06218959   0.00000000
 -2.60000000   2.11072249   0.00000000
 -2.50000000   2.15976274   0.00000000
 -2.40000000   2.20929584   0.00000000
 -2.30000000   2.25930674   0.00000000
 -2.20000000   2.30977984   0.00000000
 -2.10000000   2.36069904   0.00000000
 -2.00000000   2.41204776   0.00000000
 -1.90000000   2.46380890   0.00000000
 -1.80000000   2.51596491   0.00000000
 -1.70000000   2.56849778   0.00000000
 -1.60000000   2.62138909   0.00000000
 -1.50000000   2.67461997   0.00000000
 -1.40000000   2.72817118   0.00000000
 -1.30000000   2.78202312   0.00000000
 -1.20000000   2.83615580   0.00000000
 -1.10000000   2.89054893   0.00000000
 -1.00000000   2.94518191   0.00000000
 -0.90000000   3.00003386   0.00000000
 -0.80000000   3.05508362   0.00000000
 -0.70000000   3.11030981   0.00000000
 -0.60000000   3.16569085   0.00000000
 -0.50000000   3.22120495   0.00000000
 -0.40000000   3.27683019   0.00000000
 -0.30000000   3.33254450   0.00000000
 -0.20000000   3.38832570   0.00000000
 -0.10000000   3.44415154   0.00000000
 -0.00000000   3.49999971   0.00000000
  0.10000000   3.55584788   0.00000000
  0.20000000   3.61167372   0.00000000
  0.30000000   3.66745491   0.00000000
  0.40000000   3.72316920   0.00000000
  0.50000000   3.77879442   0.00000000
  0.60000000   3.83430850   0.00000000
  0.70000000   3.88968951   0.00000000
  0.80000000   3.94491567   0.00000000
  0.90000000   3.99996539   0.00000000
  1.00000000   4.05481729   0.00000000
  1.10000000   4.10945023   0.00000000
  1.20000000   4.16384331   0.00000000
  1.30000000   4.21797593   0.00000000
  1.40000000   4.27182780   0.00000000
  1.50000000   4.32537894   0.00000000
  1.60000000   4.37860974   0.00000000
  1.70000000   4.43150095   0.00000000
  1.80000000   4.48403373   0.00000000
  1.90000000   4.53618964   0.00000000
  2.00000000   4.58795066   0.00000000
  2.10000000   4.63929925   0.00000000
  2.20000000   4.69021833   0.00000000
  2.30000000   4.74069128   0.00000000
  2.40000000   4.79070201   0.00000000
  2.50000000   4.84023494   0.00000000
  2.60000000   4.88927501   0.00000000
  2.70000000   4.93780770   0.00000000
  2.80000000   4.98581907   0.00000000
  2.90000000   5.03329570   0.00000000
  3.00000000   5.08022478   0.00000000
  3.10000000   5.12659407   0.00000000
  3.20000000   5.17239193   0.00000000
  3.30000000   5.21760730   0.00000000
  3.40000000   5.26222975   0.00000000
  3.50000000   5.30624942   0.00000000
  3.60000000   5.34965710   0.00000000
  3.70000000   5.39244418   0.00000000
  3.80000000   5.43460265   0.00000000
  3.90000000   5.47612513   0.00000000
  4.00000000   5.51700487   0.00000000
  4.10000000   5.55723570   0.00000000
  4.20000000   5.59681211   0.00000000
  4.30000000   5.63572915   0.00000000
  4.40000000   5.67398250   0.00000000
  4.50000000   5.71156843   0.00000000
  4.60000000   5.74848383   0.00000000
  4.70000000   5.78472614   0.00000000
  4.80000000   5.82029340   0.00000000
  4.90000000   5.85518422   0.00000000
  5.00000000   5.88939777   0.00000000
  5.10000000   5.92293376   0.00000000
  5.20000000   5.95579247   0.00000000
  5.30000000   5.98797468   0.00000000
  5.40000000   6.01948171   0.00000000
  5.50000000   6.05031538   0.00000000
  5.60000000   6.08047799   0.00000000
  5.70000000   6.10997234   0.00000000
  5.80000000   6.13880168   0.00000000
  5.90000000   6.16696973   0.00000000
  6.00000000   6.19448064   0.00000000
  6.10000000   6.22133896   0.00000000
  6.20000000   6.24754968   0.00000000
  6.30000000   6.27311816   0.00000000
  6.40000000   6.29805014   0.00000000
  6.50000000   6.32235172   0.00000000
  6.60000000   6.34602934   0.00000000
  6.70000000   6.36908978   0.00000000
  6.80000000   6.39154010   0.00000000
  6.90000000   6.41338768   0.00000000
  7.00000000   6.43464018   0.00000000
  7.10000000   6.45530548   0.00000000
  7.20000000   6.47539176   0.00000000
  7.30000000   6.49490737   0.00000000
  7.40000000   6.51386092   0.00000000
  7.50000000   6.53226117   0.00000000
  7.60000000   6.55011710   0.00000000
  7.70000000   6.56743783   0.00000000
  7.80000000   6.58423262   0.00000000
  7.90000000   6.60051087   0.00000000
  8.00000000   6.61628209   0.00000000
  8.10000000   6.63155591   0.00000000
  8.20000000   6.64634202   0.00000000
  8.30000000   6.66065021   0.00000000
  8.40000000   6.67449029   0.00000000
  8.50000000   6.68787214   0.00000000
  8.60000000   6.70080568   0.00000000
  8.70000000   6.71330082   0.00000000
  8.80000000   6.72536750   0.00000000
  8.90000000   6.73701564   0.00000000
  9.00000000   6.74825514   0.00000000
  9.10000000   6.75909588   0.00000000
  9.20000000   6.76954769   0.00000000
  9.30000000   6.77962037   0.00000000
  9.40000000   6.78932362   0.00000000
  9.50000000   6.79866712   0.00000000
  9.60000000   6.80766042   0.00000000
  9.70000000   6.81631303   0.00000000
  9.80000000   6.82463432   0.00000000
  9.90000000   6.83263359   0.00000000
 10.00000000   6.84032002   0.00000000
 10.10000000   6.84770265   0.00000000
 10.20000000   6.85479044   0.00000000
 10.30000000   6.86159217   0.00000000
 10.40000000   6.86811653   0.00000000
 10.50000000   6.87437203   0.00000000
 10.60000000   6.88036707   0.00000000
 10.70000000   6.88610987   0.00000000
 10.80000000   6.89160852   0.00000000
 10.90000000   6.89687094   0.00000000
 11.00000000   6.90190488   0.00000000
 11.10000000   6.90671796   0.00000000
 11.20000000   6.91131760   0.00000000
 11.30000000   6.91571108   0.00000000
 11.40000000   6.91990549   0.00000000
 11.50000000   6.92390775   0.00000000
 11.60000000   6.92772463   0.00000000
 11.70000000   6.93136270   0.00000000
 11.80000000   6.93482839   0.00000000
 11.90000000   6.93812791   0.00000000
 12.00000000   6.94126735   0.00000000
 12.10000000   6.94425259   0.00000000
 12.20000000   6.94708935   0.00000000
 12.30000000   6.94978317   0.00000000
 12.40000000   6.95233945   0.00000000
 12.50000000   6.95476337   0.00000000
 12.60000000   6.95705999   0.00000000
 12.70000000   6.95923418   0.00000000
 12.80000000   6.96129064   0.00000000
 12.90000000   6.96323393   0.00000000
 13.00000000   6.96506842   0.00000000
 13.10000000   6.96679834   0.00000000
 13.20000000   6.96842776   0.00000000
 13.30000000   6.96996060   0.00000000
 13.40000000   6.97140061   0.00000000
 13.50000000   6.97275142   0.00000000
 13.60000000   6.97401649   0.00000000
 13.70000000   6.97519914   0.00000000
 13.80000000   6.97630255   0.00000000
 13.90000000   6.97732977   0.00000000
 14.00000000   6.97828371   0.00000000
 14.10000000   6.97916713   0.00000000
 14.20000000   6.97998270   0.00000000
 14.30000000   6.98073291   0.00000000
 14.40000000   6.98142018   0.00000000
 14.50000000   6.98204677   0.00000000
 14.60000000   6.98261484   0.00000000
 14.70000000   6.98312643   0.00000000
 14.80000000   6.98358346   0.00000000
 14.90000000   6.98398776   0.00000000
 15.00000000   6.98434105   0.00000000
 15.10000000   6.98464492   0.00000000
 15.20000000   6.98490090   0.00000000
 15.30000000   6.98511039   0.00000000
 15.40000000   6.98527472   0.00000000
 15.50000000   6.98539510   0.00000000
 15.60000000   6.98547268   0.00000000
 15.70000000   6.98550850   0.00000000
 15.80000000   6.98550353   0.00000000
 15.90000000   6.98545867   0.00000000
 16.00000000   6.98537471   0.00000000
 16.10000000   6.98525238   0.00000000
 16.20000000   6.98509235   0.00000000
 16.30000000   6.98489520   0.00000000
 16.40000000   6.98466145   0.00000000
 16.50000000   6.98439156   0.00000000
 16.60000000   6.98408590   0.00000000
 16.70000000   6.98374482   0.00000000
 16.80000000   6.98336857   0.00000000
 16.90000000   6.98295736   0.00000000
 17.00000000   6.98251136   0.00000000
 17.10000000   6.98203065   0.00000000
 17.20000000   6.98151530   0.00000000
 17.30000000   6.98096531   0.00000000
 17.40000000   6.98038063   0.00000000
 17.50000000   6.97976117   0.00000000
 17.60000000   6.97910680   0.00000000
 17.70000000   6.97841734   0.00000000
 17.80000000   6.97769258   0.00000000
 17.90000000   6.97693226   0.00000000
 18.00000000   6.97613611   0.00000000
 18.10000000   6.97530379   0.00000000
 18.20000000   6.97443494   0.00000000
 18.30000000   6.97352919   0.00000000
 18.40000000   6.97258611   0.00000000
 18.50000000   6.97160526   0.00000000
 18.60000000   6.97058616   0.00000000
 18.70000000   6.96952832   0.00000000
 18.80000000   6.96843123   0.00000000
 18.90000000   6.96729433   0.00000000
 19.00000000   6.96611706   0.00000000
 19.10000000   6.96489883   0.00000000
 19.20000000   6.96363906   0.00000000
 19.30000000   6.96233712   0.00000000
 19.40000000   6.96099237   0.00000000
 19.50000000   6.95960417   0.00000000
 19.60000000   6.95817186   0.00000000
 19.70000000   6.95669477   0.00000000
 19.80000000   6.95517221   0.00000000
 19.90000000   6.95360351   0.00000000
 20.00000000   6.95198795   0.00000000
 20.10000000   6.95032484   0.00000000
 20.20000000   6.94861347   0.00000000
 20.30000000   6.94685312   0.00000000
 20.40000000   6.94504308   0.00000000
 20.50000000   6.94318264   0.00000000
 20.60000000   6.94127108   0.00000000
 20.70000000   6.93930768   0.00000000
 20.80000000   6.93729174   0.00000000
 20.90000000   6.93522254   0.00000000
 21.00000000   6.93309938   0.00000000
 21.10000000   6.93092156   0.00000000
 21.20000000   6.92868839   0.00000000
 21.30000000   6.92639919   0.00000000
 21.40000000   6.92405329   0.00000000
 21.50000000   6.92165002   0.00000000
 21.60000000   6.91918873   0.00000000
 21.70000000   6.91666879   0.00000000
 21.80000000   6.91408957   0.00000000
 21.90000000   6.91145047   0.00000000
 22.00000000   6.90875089   0.00000000
 22.10000000   6.90599026   0.00000000
 22.20000000   6.90316803   0.00000000
 22.30000000   6.90028365   0.00000000
 22.40000000   6.89733662   0.00000000
 22.50000000   6.89432644   0.00000000
 22.60000000   6.89125264   0.00000000
 22.70000000   6.88811478   0.00000000
 22.80000000   6.88491243   0.00000000
 22.90000000   6.88164519   0.00000000
 23.00000000   6.87831271   0.00000000
 23.10000000   6.87491463   0.00000000
 23.20000000   6.87145066   0.00000000
 23.30000000   6.86792050   0.00000000
 23.40000000   6.86432390   0.00000000
 23.50000000   6.86066065   0.00000000
 23.60000000   6.85693055   0.00000000
 23.70000000   6.85313346   0.00000000
 23.80000000   6.84926926   0.00000000
 23.90000000   6.84533785   0.00000000
 24.00000000   6.84133919   0.00000000
 24.10000000   6.83727327   0.00000000
 24.20000000   6.83314011   0.00000000
 24.30000000   6.82893977   0.00000000
 24.40000000   6.82467234   0.00000000
 24.50000000   6.82033798   0.00000000
 24.60000000   6.81593685   0.00000000
 24.70000000   6.81146917   0.00000000
 24.80000000   6.80693520   0.00000000
 24.90000000   6.80233523   0.00000000
 25.00000000   6.79766961   0.00000000
 25.10000000   6.79293872   0.00000000
 25.20000000   6.78814297   0.00000000
 25.30000000   6.78328284   0.00000000
 25.40000000   6.77835882   0.00000000
 25.50000000   6.77337146   0.00000000
 25.60000000   6.76832136   0.00000000
 25.70000000   6.76320914   0.00000000
 25.80000000   6.75803548   0.00000000
 25.90000000   6.75280111   0.00000000
 26.00000000   6.74750676   0.00000000
 26.10000000   6.74215326   0.00000000
 26.20000000   6.73674144   0.00000000
 26.30000000   6.73127219   0.00000000
 26.40000000   6.72574643   0.00000000
 26.50000000   6.72016513   0.00000000
 26.60000000   6.71452930   0.00000000
 26.70000000   6.70883999   0.00000000
 26.80000000   6.70309828   0.00000000
 26.90000000   6.69730530   0.00000000
 27.00000000   6.69146223   0.00000000
 27.10000000   6.68557025   0.00000000
 27.20000000   6.67963062   0.00000000
 27.30000000   6.67364461   0.00000000
 27.40000000   6.66761354   0.00000000
 27.50000000   6.66153875   0.00000000
 27.60000000   6.65542162   0.00000000
 27.70000000   6.64926358   0.00000000
 27.80000000   6.64306607   0.00000000
 27.90000000   6.63683057   0.00000000
 28.00000000   6.63055858   0.00000000
 28.10000000   6.62425166   0.00000000
 28.20000000   6.61791136   0.00000000
 28.30000000   6.61153928   0.00000000
 28.40000000   6.60513704   0.00000000
 28.50000000   6.59870628   0.00000000
 28.60000000   6.59224867   0.00000000
 28.70000000   6.58576590   0.00000000
 28.80000000   6.57925968   0.00000000
 28.90000000   6.57273173   0.00000000
 29.00000000   6.56618381   0.00000000
 29.10000000   6.55961767   0.00000000
 29.20000000   6.55303510   0.00000000
 29.30000000   6.54643788   0.00000000
 29.40000000   6.53982782   0.00000000
 29.50000000   6.53320674   0.00000000
 29.60000000   6.52657645   0.00000000
 29.70000000   6.51993880   0.00000000
 29.80000000   6.51329560   0.00000000
 29.90000000   6.50664872   0.00000000
 30.00000000   6.49999999   0.00000000
 30.10000000   6.49335126   0.00000000
 30.20000000   6.48670438   0.00000000
 30.30000000   6.48006119   0.00000000
 30.40000000   6.47342353   0.00000000
 30.50000000   6.46679324   0.00000000
 30.60000000   6.46017216   0.00000000
 30.70000000   6.45356210   0.00000000
 30.80000000   6.44696488   0.00000000
 30.90000000   6.44038231   0.00000000
 31.00000000   6.43381617   0.00000000
 31.10000000   6.42726824   0.00000000
 31.20000000   6.42074029   0.00000000
 31.30000000   6.41423406   0.00000000
 31.40000000   6.40775129   0.00000000
 31.50000000   6.40129367   0.00000000
 31.60000000   6.39486291   0.00000000
 31.70000000   6.38846066   0.00000000
 31.80000000   6.38208858   0.00000000
 31.90000000   6.37574827   0.00000000
 32.00000000   6.36944134   0.00000000
 32.10000000   6.36316935   0.00000000
 32.20000000   6.35693384   0.00000000
 32.30000000   6.35073631   0.00000000
 32.40000000   6.34457826   0.00000000
 32.50000000   6.33846112   0.00000000
 32.60000000   6.33238631   0.00000000
 32.70000000   6.32635522   0.00000000
 32.80000000   6.32036919   0.00000000
 32.90000000   6.31442954   0.00000000
 33.00000000   6.30853754   0.00000000
 33.10000000   6.30269443   0.00000000
 33.20000000   6.29690143   0.00000000
 33.30000000   6.29115969   0.00000000
 33.40000000   6.28547034   0.00000000
 33.50000000   6.27983446   0.00000000
 33.60000000   6.27425312   0.00000000
 33.70000000   6.26872731   0.00000000
 33.80000000   6.26325799   0.00000000
 33.90000000   6.25784611   0.00000000
 34.00000000   6.25249254   0.00000000
 34.10000000   6.24719812   0.00000000
 34.20000000   6.24196365   0.00000000
 34.30000000   6.23678990   0.00000000
 34.40000000   6.23167757   0.00000000
 34.50000000   6.22662735   0.00000000
 34.60000000   6.22163986   0.00000000
 34.70000000   6.21671570   0.00000000
 34.80000000   6.21185540   0.00000000
 34.90000000   6.20705947   0.00000000
 35.00000000   6.20232838   0.00000000
 35.10000000   6.19766254   0.00000000
 35.20000000   6.19306234   0.00000000
 35.30000000   6.18852810   0.00000000
 35.40000000   6.18406013   0.00000000
 35.50000000   6.17965867   0.00000000
 35.60000000   6.17532394   0.00000000
 35.70000000   6.17105613   0.00000000
 35.80000000   6.16685535   0.00000000
 35.90000000   6.16272170   0.00000000
 36.00000000   6.15865525   0.00000000
 36.10000000   6.15465601   0.00000000
 36.20000000   6.15072397   0.00000000
 36.30000000   6.14685906   0.00000000
 36.40000000   6.14306119   0.00000000
 36.50000000   6.13933025   0.00000000
 36.60000000   6.13566606   0.00000000
 36.70000000   6.13206844   0.00000000
 36.80000000   6.12853715   0.00000000
 36.90000000   6.12507194   0.00000000
 37.00000000   6.12167250   0.00000000
 37.10000000   6.11833853   0.00000000
 37.20000000   6.11506967   0.00000000
 37.30000000   6.11186553   0.00000000
 37.40000000   6.10872571   0.00000000
 37.50000000   6.10564977   0.00000000
 37.60000000   6.10263725   0.00000000
 37.70000000   6.09968766   0.00000000
 37.80000000   6.09680048   0.00000000
 37.90000000   6.09397519   0.00000000
 38.00000000   6.09121122   0.00000000
 38.10000000   6.08850799   0.00000000
 38.20000000   6.08586491   0.00000000
 38.30000000   6.08328134   0.00000000
 38.40000000   6.08075666   0.00000000
 38.50000000   6.07829020   0.00000000
 38.60000000   6.07588130   0.00000000
 38.70000000   6.07352926   0.00000000
 38.80000000   6.07123338   0.00000000
 38.90000000   6.06899294   0.00000000
 39.00000000   6.06680720   0.00000000
 39.10000000   6.06467543   0.00000000
 39.20000000   6.06259687   0.00000000
 39.30000000   6.06057076   0.00000000
 39.40000000   6.05859631   0.00000000
 39.50000000   6.05667275   0.00000000
 39.60000000   6.05479929   0.00000000
 39.70000000   6.05297513   0.00000000
 39.80000000   6.05119945   0.00000000
 39.90000000   6.04947147   0.00000000
 40.00000000   6.04779035   0.00000000
 40.10000000   6.04615529   0.00000000
 40.20000000   6.04456546   0.00000000
 40.30000000   6.04302005   0.00000000
 40.40000000   6.04151822   0.00000000
 40.50000000   6.04005916   0.00000000
 40.60000000   6.03864203   0.00000000
 40.70000000   6.03726603   0.00000000
 40.80000000   6.03593032   0.00000000
 40.90000000   6.03463408   0.00000000
 41.00000000   6.03337651   0.00000000
 41.10000000   6.03215677   0.00000000
 41.20000000   6.03097408   0.00000000
 41.30000000   6.02982760   0.00000000
 41.40000000   6.02871656   0.00000000
 41.50000000   6.02764015   0.00000000
 41.60000000   6.02659757   0.00000000
 41.70000000   6.02558806   0.00000000
 41.80000000   6.02461083   0.00000000
 41.90000000   6.02366511   0.00000000
 42.00000000   6.02275013   0.00000000
 42.10000000   6.02186516   0.00000000
 42.20000000   6.02100943   0.00000000
 42.30000000   6.02018222   0.00000000
 42.40000000   6.01938279   0.00000000
 42.50000000   6.01861043   0.00000000
 42.60000000   6.01786442   0.00000000
 42.70000000   6.01714408   0.00000000
 42.80000000   6.01644870   0.00000000
 42.90000000   6.01577761   0.00000000
 43.00000000   6.01513015   0.00000000
 43.10000000   6.01450564   0.00000000
 43.20000000   6.01390346   0.00000000
 43.30000000   6.01332295   0.00000000
 43.40000000   6.01276350   0.00000000
 43.50000000   6.01222449   0.00000000
 43.60000000   6.01170532   0.00000000
 43.70000000   6.01120540   0.00000000
 43.80000000   6.01072414   0.00000000
 43.90000000   6.01026099   0.00000000
 44.00000000   6.00981538   0.00000000
 44.10000000   6.00938676   0.00000000
 44.20000000   6.00897461   0.00000000
 44.30000000   6.00857841   0.00000000
 44.40000000   6.00819764   0.00000000
 44.50000000   6.00783180   0.00000000
 44.60000000   6.00748040   0.00000000
 44.70000000   6.00714298   0.00000000
 44.80000000   6.00681906   0.00000000
 44.90000000   6.00650820   0.00000000
 45.00000000   6.00620995   0.00000000
 45.10000000   6.00592388   0.00000000
 45.20000000   6.00564958   0.00000000
 45.30000000   6.00538663   0.00000000
 45.40000000   6.00513463   0.00000000
 45.50000000   6.00489321   0.00000000
 45.60000000   6.00466198   0.00000000
 45.70000000   6.00444059   0.00000000
 45.80000000   6.00422867   0.00000000
 45.90000000   6.00402589   0.00000000
 46.00000000   6.00383191   0.00000000
 46.10000000   6.00364641   0.00000000
 46.20000000   6.00346909   0.00000000
 46.30000000   6.00329963   0.00000000
 46.40000000   6.00313775   0.00000000
 46.50000000   6.00298316   0.00000000
 46.60000000   6.00283560   0.00000000
 46.70000000   6.00269481   0.00000000
 46.80000000   6.00256054   0.00000000
 46.90000000   6.00243255   0.00000000
 47.00000000   6.00231061   0.00000000
 47.10000000   6.00219450   0.00000000
 47.20000000   6.00208402   0.00000000
 47.30000000   6.00197897   0.00000000
 47.40000000   6.00187916   0.00000000
 47.50000000   6.00178442   0.00000000
 47.60000000   6.00169460   0.00000000
 47.70000000   6.00160953   0.00000000
 47.80000000   6.00152908   0.00000000
 47.90000000   6.00145313   0.00000000
 48.00000000   6.00138157   0.00000000
 48.10000000   6.00131430   0.00000000
 48.20000000   6.00125123   0.00000000
 48.30000000   6.00119230   0.00000000
 48.40000000   6.00113747   0.00000000
 48.50000000   6.00108669   0.00000000
 48.60000000   6.00103995   0.00000000
 48.70000000   6.00099726   0.00000000
 48.80000000   6.00095865   0.00000000
 48.90000000   6.00092415   0.00000000
 49.00000000   6.00089385   0.00000000
 49.10000000   6.00086784   0.00000000
 49.20000000   6.00084625   0.00000000
 49.30000000   6.00082922   0.00000000
 49.40000000   6.00081695   0.00000000
 49.50000000   6.00080965   0.00000000
 49.60000000   6.00080759   0.00000000
 49.70000000   6.00081104   0.00000000
 49.80000000   6.00082035   0.00000000
 49.90000000   6.00083590   0.00000000
 50.00000000   6.00085812   0.00000000
 50.10000000   6.00088748   0.00000000
 50.20000000   6.00092452   0.00000000
 50.30000000   6.00096983   0.00000000
 50.40000000   6.00102407   0.00000000
 50.50000000   6.00108795   0.00000000
 50.60000000   6.00116227   0.00000000
 50.70000000   6.00124790   0.00000000
 50.80000000   6.00134578   0.00000000
 50.90000000   6.00145695   0.00000000
 51.00000000   6.00158253   0.00000000
 51.10000000   6.00172374   0.00000000
 51.20000000   6.00188190   0.00000000
 51.30000000   6.00205843   0.00000000
 51.40000000   6.00225487   0.00000000
 51.50000000   6.00247288   0.00000000
 51.60000000   6.00271424   0.00000000
 51.70000000   6.00298084   0.00000000
 51.80000000   6.00327473   0.00000000
 51.90000000   6.00359809   0.00000000
 52.00000000   6.00395325   0.00000000
 52.10000000   6.00434267   0.00000000
 52.20000000   6.00476899   0.00000000
 52.30000000   6.00523500   0.00000000
 52.40000000   6.00574365   0.00000000
 52.50000000   6.00629808   0.00000000
 52.60000000   6.00690158   0.00000000
 52.70000000   6.00755763   0.00000000
 52.80000000   6.00826988   0.00000000
 52.90000000   6.00904218   0.00000000
 53.00000000   6.00987854   0.00000000
 53.10000000   6.01078317   0.00000000
 53.20000000   6.01176046   0.00000000
 53.30000000   6.01281500   0.00000000
 53.40000000   6.01395154   0.00000000
 53.50000000   6.01517503   0.00000000
 53.60000000   6.01649058   0.00000000
 53.70000000   6.01790350   0.00000000
 53.80000000   6.01941923   0.00000000
 53.90000000   6.02104341   0.00000000
 54.00000000   6.02278180   0.00000000
 54.10000000   6.02464034   0.00000000
 54.20000000   6.02662507   0.00000000
 54.30000000   6.02874217   0.00000000
 54.40000000   6.03099792   0.00000000
 54.50000000   6.03339870   0.00000000
 54.60000000   6.03595097   0.00000000
 54.70000000   6.03866125   0.00000000
 54.80000000   6.04153609   0.00000000
 54.90000000   6.04458208   0.00000000
 55.00000000   6.04780580   0.00000000
 55.10000000   6.05121382   0.00000000
 55.20000000   6.05481263   0.00000000
 55.30000000   6.05860871   0.00000000
 55.40000000   6.06260838   0.00000000
 55.50000000   6.06681789   0.00000000
 55.60000000   6.07124329   0.00000000
 55.70000000   6.07589050   0.00000000
 55.80000000   6.08076519   0.00000000
 55.90000000   6.08587282   0.00000000
 56.00000000   6.09121856   0.00000000
 56.10000000   6.09680728   0.00000000
 56.20000000   6.10264355   0.00000000
 56.30000000   6.10873155   0.00000000
 56.40000000   6.11507507   0.00000000
 56.50000000   6.12167750   0.00000000
 56.60000000   6.12854178   0.00000000
 56.70000000   6.13567034   0.00000000
 56.80000000   6.14306515   0.00000000
 56.90000000   6.15072762   0.00000000
 57.00000000   6.15865863   0.00000000
 57.10000000   6.16685847   0.00000000
 57.20000000   6.17532682   0.00000000
 57.30000000   6.18406278   0.00000000
 57.40000000   6.19306479   0.00000000
 57.50000000   6.20233064   0.00000000
 57.60000000   6.21185748   0.00000000
 57.70000000   6.22164178   0.00000000
 57.80000000   6.23167933   0.00000000
 57.90000000   6.24196527   0.00000000
 58.00000000   6.25249402   0.00000000
 58.10000000   6.26325935   0.00000000
 58.20000000   6.27425436   0.00000000
 58.30000000   6.28547147   0.00000000
 58.40000000   6.29690246   0.00000000
 58.50000000   6.30853848   0.00000000
 58.60000000   6.32037004   0.00000000
 58.70000000   6.33238708   0.00000000
 58.80000000   6.34457895   0.00000000
 58.90000000   6.35693446   0.00000000
 59.00000000   6.36944189   0.00000000
 59.10000000   6.38208906   0.00000000
 59.20000000   6.39486334   0.00000000
 59.30000000   6.40775165   0.00000000
 59.40000000   6.42074060   0.00000000
 59.50000000   6.43381642   0.00000000
 59.60000000   6.44696509   0.00000000
 59.70000000   6.46017231   0.00000000
 59.80000000   6.47342364   0.00000000
 59.90000000   6.48670444   0.00000000
 60.00000000   6.50000000   0.00000000
 60.10000000   6.51329556   0.00000000
 60.20000000   6.52657636   0.00000000
 60.30000000   6.53982769   0.00000000
 60.40000000   6.55303491   0.00000000
 60.50000000   6.56618358   0.00000000
 60.60000000   6.57925940   0.00000000
 60.70000000   6.59224835   0.00000000
 60.80000000   6.60513666   0.00000000
 60.90000000   6.61791094   0.00000000
 61.00000000   6.63055811   0.00000000
 61.10000000   6.64306554   0.00000000
 61.20000000   6.65542105   0.00000000
 61.30000000   6.66761292   0.00000000
 61.40000000   6.67962996   0.00000000
 61.50000000   6.69146152   0.00000000
 61.60000000   6.70309754   0.00000000
 61.70000000   6.71452853   0.00000000
 61.80000000   6.72574564   0.00000000
 61.90000000   6.73674065   0.00000000
 62.00000000   6.74750598   0.00000000
 62.10000000   6.75803473   0.00000000
 62.20000000   6.76832067   0.00000000
 62.30000000   6.77835822   0.00000000
 62.40000000   6.78814252   0.00000000
 62.50000000   6.79766936   0.00000000
 62.60000000   6.80693521   0.00000000
 62.70000000   6.81593722   0.00000000
 62.80000000   6.82467318   0.00000000
 62.90000000   6.83314153   0.00000000
 63.00000000   6.84134137   0.00000000
 63.10000000   6.84927238   0.00000000
 63.20000000   6.85693485   0.00000000
 63.30000000   6.86432966   0.00000000
 63.40000000   6.87145822   0.00000000
 63.50000000   6.87832250   0.00000000
 63.60000000   6.88492493   0.00000000
 63.70000000   6.89126845   0.00000000
 63.80000000   6.89735645   0.00000000
 63.90000000   6.90319272   0.00000000
 64.00000000   6.90878144   0.00000000
 64.10000000   6.91412718   0.00000000
 64.20000000   6.91923481   0.00000000
 64.30000000   6.92410950   0.00000000
 64.40000000   6.92875671   0.00000000
 64.50000000   6.93318211   0.00000000
 64.60000000   6.93739162   0.00000000
 64.70000000   6.94139129   0.00000000
 64.80000000   6.94518737   0.00000000
 64.90000000   6.94878618   0.00000000
 65.00000000   6.95219420   0.00000000
 65.10000000   6.95541792   0.00000000
 65.20000000   6.95846391   0.00000000
 65.30000000   6.96133875   0.00000000
 65.40000000   6.96404903   0.00000000
 65.50000000   6.96660130   0.00000000
 65.60000000   6.96900208   0.00000000
 65.70000000   6.97125783   0.00000000
 65.80000000   6.97337493   0.00000000
 65.90000000   6.97535966   0.00000000
 66.00000000   6.97721820   0.00000000
 66.10000000   6.97895659   0.00000000
 66.20000000   6.98058077   0.00000000
 66.30000000   6.98209650   0.00000000
 66.40000000   6.98350942   0.00000000
 66.50000000   6.98482497   0.00000000
 66.60000000   6.98604846   0.00000000
 66.70000000   6.98718500   0.00000000
 66.80000000   6.98823954   0.00000000
 66.90000000   6.98921683   0.00000000
 67.00000000   6.99012146   0.00000000
 67.10000000   6.99095782   0.00000000
 67.20000000   6.99173012   0.00000000
 67.30000000   6.99244237   0.00000000
 67.40000000   6.99309842   0.00000000
 67.50000000   6.99370192   0.00000000
 67.60000000   6.99425635   0.00000000
 67.70000000   6.99476500   0.00000000
 67.80000000   6.99523101   0.00000000
 67.90000000   6.99565733   0.00000000
 68.00000000   6.99604675   0.00000000
 68.10000000   6.99640191   0.00000000
 68.20000000   6.99672527   0.00000000
 68.30000000   6.99701916   0.00000000
 68.40000000   6.99728576   0.00000000
 68.50000000   6.99752712   0.00000000
 68.60000000   6.99774513   0.00000000
 68.70000000   6.99794157   0.00000000
 68.80000000   6.99811810   0.00000000
 68.90000000   6.99827626   0.00000000
 69.00000000   6.99841747   0.00000000
 69.10000000   6.99854305   0.00000000
 69.20000000   6.99865422   0.00000000
 69.30000000   6.99875210   0.00000000
 69.40000000   6.99883773   0.00000000
 69.50000000   6.99891205   0.00000000
 69.60000000   6.99897593   0.00000000
 69.70000000   6.99903017   0.00000000
 69.80000000   6.99907548   0.00000000
 69.90000000   6.99911252   0.00000000
 70.00000000   6.99914188   0.00000000
 70.10000000   6.99916410   0.00000000
 70.20000000   6.99917965   0.00000000
 70.30000000   6.99918896   0.00000000
 70.40000000   6.99919241   0.00000000
 70.50000000   6.99919035   0.00000000
 70.60000000   6.99918305   0.00000000
 70.70000000   6.99917078   0.00000000
 70.80000000   6.99915375   0.00000000
 70.90000000   6.99913216   0.00000000
 71.00000000   6.99910615   0.00000000
 71.10000000   6.99907585   0.00000000
 71.20000000   6.99904135   0.00000000
 71.30000000   6.99900274   0.00000000
 71.40000000   6.99896005   0.00000000
 71.50000000   6.99891331   0.00000000
 71.60000000   6.99886253   0.00000000
 71.70000000   6.99880770   0.00000000
 71.80000000   6.99874877   0.00000000
 71.90000000   6.99868570   0.00000000
 72.00000000   6.99861843   0.00000000
 72.10000000   6.99854687   0.00000000
 72.20000000   6.99847092   0.00000000
 72.30000000   6.99839047   0.00000000
 72.40000000   6.99830540   0.00000000
 72.50000000   6.99821558   0.00000000
 72.60000000   6.99812084   0.00000000
 72.70000000   6.99802103   0.00000000
 72.80000000   6.99791598   0.00000000
 72.90000000   6.99780550   0.00000000
 73.00000000   6.99768939   0.00000000
 73.10000000   6.99756745   0.00000000
 73.20000000   6.99743946   0.00000000
 73.30000000   6.99730519   0.00000000
 73.40000000   6.99716440   0.00000000
 73.50000000   6.99701684   0.00000000
 73.60000000   6.99686225   0.00000000
 73.70000000   6.99670037   0.00000000
 73.80000000   6.99653091   0.00000000
 73.90000000   6.99635359   0.00000000
 74.00000000   6.99616809   0.00000000
 74.10000000   6.99597411   0.00000000
 74.20000000   6.99577133   0.00000000
 74.30000000   6.99555941   0.00000000
 74.40000000   6.99533802   0.00000000
 74.50000000   6.99510679   0.00000000
 74.60000000   6.99486537   0.00000000
 74.70000000   6.99461337   0.00000000
 74.80000000   6.99435042   0.00000000
 74.90000000   6.99407612   0.00000000
 75.00000000   6.99379005   0.00000000
 75.10000000   6.99349180   0.00000000
 75.20000000   6.99318094   0.00000000
 75.30000000   6.99285702   0.00000000
 75.40000000   6.99251960   0.00000000
 75.50000000   6.99216820   0.00000000
 75.60000000   6.99180236   0.00000000
 75.70000000   6.99142159   0.00000000
 75.80000000   6.99102539   0.00000000
 75.90000000   6.99061324   0.00000000
 76.00000000   6.99018462   0.00000000
 76.10000000   6.98973901   0.00000000
 76.20000000   6.98927586   0.00000000
 76.30000000   6.98879460   0.00000000
 76.40000000   6.98829468   0.00000000
 76.50000000   6.98777551   0.00000000
 76.60000000   6.98723650   0.00000000
 76.70000000   6.98667705   0.00000000
 76.80000000   6.98609654   0.00000000
 76.90000000   6.98549436   0.00000000
 77.00000000   6.98486985   0.00000000
 77.10000000   6.98422239   0.00000000
 77.20000000   6.98355130   0.00000000
 77.30000000   6.98285592   0.00000000
 77.40000000   6.98213558   0.00000000
 77.50000000   6.98138957   0.00000000
 77.60000000   6.98061721   0.00000000
 77.70000000   6.97981778   0.00000000
 77.80000000   6.97899057   0.00000000
 77.90000000   6.97813484   0.00000000
 78.00000000   6.97724987   0.00000000
 78.10000000   6.97633489   0.00000000
 78.20000000   6.97538917   0.00000000
 78.30000000   6.97441194   0.00000000
 78.40000000   6.97340243   0.00000000
 78.50000000   6.97235985   0.00000000
 78.60000000   6.97128344   0.00000000
 78.70000000   6.97017240   0.00000000
 78.80000000   6.96902592   0.00000000
 78.90000000   6.96784323   0.00000000
 79.00000000   6.96662349   0.00000000
 79.10000000   6.96536592   0.00000000
 79.20000000   6.96406968   0.00000000
 79.30000000   6.96273397   0.00000000
 79.40000000   6.96135797   0.00000000
 79.50000000   6.95994084   0.00000000
 79.60000000   6.95848178   0.00000000
 79.70000000   6.95697995   0.00000000
 79.80000000   6.95543454   0.00000000
 79.90000000   6.95384471   0.00000000
 80.00000000   6.95220965   0.00000000
 80.10000000   6.95052853   0.00000000
 80.20000000   6.94880055   0.00000000
 80.30000000   6.94702487   0.00000000
 80.40000000   6.94520071   0.00000000
 80.50000000   6.94332725   0.00000000
 80.60000000   6.94140369   0.00000000
 80.70000000   6.93942924   0.00000000
 80.80000000   6.93740313   0.00000000
 80.90000000   6.93532457   0.00000000
 81.00000000   6.93319280   0.00000000
 81.10000000   6.93100706   0.00000000
 81.20000000   6.92876662   0.00000000
 81.30000000   6.92647074   0.00000000
 81.40000000   6.92411870   0.00000000
 81.50000000   6.92170980   0.00000000
 81.60000000   6.91924334   0.00000000
 81.70000000   6.91671866   0.00000000
 81.80000000   6.91413509   0.00000000
 81.90000000   6.91149201   0.00000000
 82.00000000   6.90878878   0.00000000
 82.10000000   6.90602481   0.00000000
 82.20000000   6.90319952   0.00000000
 82.30000000   6.90031234   0.00000000
 82.40000000   6.89736275   0.00000000
 82.50000000   6.89435023   0.00000000
 82.60000000   6.89127429   0.00000000
 82.70000000   6.88813447   0.00000000
 82.80000000   6.88493033   0.00000000
 82.90000000   6.88166147   0.00000000
 83.00000000   6.87832750   0.00000000
 83.10000000   6.87492806   0.00000000
 83.20000000   6.87146285   0.00000000
 83.30000000   6.86793156   0.00000000
 83.40000000   6.86433394   0.00000000
 83.50000000   6.86066975   0.00000000
 83.60000000   6.85693881   0.00000000
 83.70000000   6.85314094   0.00000000
 83.80000000   6.84927603   0.00000000
 83.90000000   6.84534399   0.00000000
 84.00000000   6.84134475   0.00000000
 84.10000000   6.83727830   0.00000000
 84.20000000   6.83314465   0.00000000
 84.30000000   6.82894387   0.00000000
 84.40000000   6.82467606   0.00000000
 84.50000000   6.82034133   0.00000000
 84.60000000   6.81593987   0.00000000
 84.70000000   6.81147190   0.00000000
 84.80000000   6.80693766   0.00000000
 84.90000000   6.80233746   0.00000000
 85.00000000   6.79767162   0.00000000
 85.10000000   6.79294053   0.00000000
 85.20000000   6.78814460   0.00000000
 85.30000000   6.78328430   0.00000000
 85.40000000   6.77836014   0.00000000
 85.50000000   6.77337265   0.00000000
 85.60000000   6.76832243   0.00000000
 85.70000000   6.76321010   0.00000000
 85.80000000   6.75803635   0.00000000
 85.90000000   6.75280188   0.00000000
 86.00000000   6.74750746   0.00000000
 86.10000000   6.74215389   0.00000000
 86.20000000   6.73674200   0.00000000
 86.30000000   6.73127269   0.00000000
 86.40000000   6.72574688   0.00000000
 86.50000000   6.72016554   0.00000000
 86.60000000   6.71452966   0.00000000
 86.70000000   6.70884031   0.00000000
 86.80000000   6.70309857   0.00000000
 86.90000000   6.69730557   0.00000000
 87.00000000   6.69146246   0.00000000
 87.10000000   6.68557046   0.00000000
 87.20000000   6.67963081   0.00000000
 87.30000000   6.67364478   0.00000000
 87.40000000   6.66761369   0.00000000
 87.50000000   6.66153888   0.00000000
 87.60000000   6.65542174   0.00000000
 87.70000000   6.64926369   0.00000000
 87.80000000   6.64306616   0.00000000
 87.90000000   6.63683065   0.00000000
 88.00000000   6.63055866   0.00000000
 88.10000000   6.62425173   0.00000000
 88.20000000   6.61791142   0.00000000
 88.30000000   6.61153934   0.00000000
 88.40000000   6.60513709   0.00000000
 88.50000000   6.59870633   0.00000000
 88.60000000   6.59224871   0.00000000
 88.70000000   6.58576594   0.00000000
 88.80000000   6.57925971   0.00000000
 88.90000000   6.57273176   0.00000000
 89.00000000   6.56618383   0.00000000
 89.10000000   6.55961769   0.00000000
 89.20000000   6.55303512   0.00000000
 89.30000000   6.54643790   0.00000000
 89.40000000   6.53982784   0.00000000
 89.50000000   6.53320675   0.00000000
 89.60000000   6.52657646   0.00000000
 89.70000000   6.51993881   0.00000000
 89.80000000   6.51329561   0.00000000
 89.90000000   6.50664873   0.00000000
 90.00000000   6.50000000   0.00000000
 90.10000000   6.49335127   0.00000000
 90.20000000   6.48670439   0.00000000
 90.30000000   6.48006119   0.00000000
 90.40000000   6.47342354   0.00000000
 90.50000000   6.46679325   0.00000000
 90.60000000   6.46017216   0.00000000
 90.70000000   6.45356210   0.00000000
 90.80000000   6.44696488   0.00000000
 90.90000000   6.44038231   0.00000000
 91.00000000   6.43381617   0.00000000
 91.10000000   6.42726824   0.00000000
 91.20000000   6.42074029   0.00000000
 91.30000000   6.41423406   0.00000000
 91.40000000   6.40775129   0.00000000
 91.50000000   6.40129367   0.00000000
 91.60000000   6.39486291   0.00000000
 91.70000000   6.38846066   0.00000000
 91.80000000   6.38208858   0.00000000
 91.90000000   6.37574827   0.00000000
 92.00000000   6.36944134   0.00000000
 92.10000000   6.36316935   0.00000000
 92.20000000   6.35693384   0.00000000
 92.30000000   6.35073631   0.00000000
 92.40000000   6.34457826   0.00000000
 92.50000000   6.33846112   0.00000000
 92.60000000   6.33238631   0.00000000
 92.70000000   6.32635522   0.00000000
 92.80000000   6.32036919   0.00000000
 92.90000000   6.31442954   0.00000000
 93.00000000   6.30853754   0.00000000
 93.10000000   6.30269443   0.00000000
 93.20000000   6.29690143   0.00000000
 93.30000000   6.29115969   0.00000000
 93.40000000   6.28547034   0.00000000
 93.50000000   6.27983446   0.00000000
 93.60000000   6.27425312   0.00000000
 93.70000000   6.26872731   0.00000000
 93.80000000   6.26325800   0.00000000
 93.90000000   6.25784611   0.00000000
 94.00000000   6.25249254   0.00000000
 94.10000000   6.24719812   0.00000000
 94.20000000   6.24196365   0.00000000
 94.30000000   6.23678990   0.00000000
 94.40000000   6.23167757   0.00000000
 94.50000000   6.22662735   0.00000000
 94.60000000   6.22163986   0.00000000
 94.70000000   6.21671570   0.00000000
 94.80000000   6.21185540   0.00000000
 94.90000000   6.20705947   0.00000000
 95.00000000   6.20232838   0.00000000
 95.10000000   6.19766254   0.00000000
 95.20000000   6.19306234   0.00000000
 95.30000000   6.18852810   0.00000000
 95.40000000   6.18406013   0.00000000
 95.50000000   6.17965867   0.00000000
 95.60000000   6.17532394   0.00000000
 95.70000000   6.17105613   0.00000000
 95.80000000   6.16685535   0.00000000
 95.90000000   6.16272170   0.00000000
 96.00000000   6.15865525   0.00000000
 96.10000000   6.15465601   0.00000000
 96.20000000   6.15072397   0.00000000
 96.30000000   6.14685906   0.00000000
 96.40000000   6.14306119   0.00000000
 96.50000000   6.13933025   0.00000000
 96.60000000   6.13566606   0.00000000
 96.70000000   6.13206844   0.00000000
 96.80000000   6.12853715   0.00000000
 96.90000000   6.12507194   0.00000000
 97.00000000   6.12167250   0.00000000
 97.10000000   6.11833853   0.00000000
 97.20000000   6.11506967   0.00000000
 97.30000000   6.11186553   0.00000000
 97.40000000   6.10872571   0.00000000
 97.50000000   6.10564977   0.00000000
 97.60000000   6.10263725   0.00000000
 97.70000000   6.09968766   0.00000000
 97.80000000   6.09680048   0.00000000
 97.90000000   6.09397519   0.00000000
 98.00000000   6.09121122   0.00000000
 98.10000000   6.08850799   0.00000000
 98.20000000   6.08586491   0.00000000
 98.30000000   6.08328134   0.00000000
 98.40000000   6.08075666   0.00000000
 98.50000000   6.07829020   0.00000000
 98.60000000   6.07588130   0.00000000
 98.70000000   6.07352926   0.00000000
 98.80000000   6.07123338   0.00000000
 98.90000000   6.06899294   0.00000000
 99.00000000   6.06680720   0.00000000
 99.10000000   6.06467543   0.00000000
 99.20000000   6.06259687   0.00000000
 99.30000000   6.06057076   0.00000000
 99.40000000   6.05859631   0.00000000
 99.50000000   6.05667275   0.00000000
 99.60000000   6.05479929   0.00000000
 99.70000000   6.05297513   0.00000000
 99.80000000   6.05119945   0.00000000
 99.90000000   6.04947147   0.00000000
100.00000000   6.04779035   0.00000000
100.10000000   6.04615529   0.00000000
100.20000000   6.04456546   0.00000000
100.30000000   6.04302005   0.00000000
100.40000000   6.04151822   0.00000000
100.50000000   6.04005916   0.00000000
100.60000000   6.03864203   0.00000000
100.70000000   6.03726603   0.00000000
100.80000000   6.03593032   0.00000000
100.90000000   6.03463408   0.00000000
101.00000000   6.03337651   0.00000000
101.10000000   6.03215677   0.00000000
101.20000000   6.03097408   0.00000000
101.30000000   6.02982760   0.00000000
101.40000000   6.02871656   0.00000000
101.50000000   6.02764015   0.00000000
101.60000000   6.02659757   0.00000000
101.70000000   6.02558806   0.00000000
101.80000000   6.02461083   0.00000000
101.90000000   6.02366510   0.00000000
102.00000000   6.02275013   0.00000000
102.10000000   6.02186515   0.00000000
102.20000000   6.02100943   0.00000000
102.30000000   6.02018221   0.00000000
102.40000000   6.01938278   0.00000000
102.50000000   6.01861042   0.00000000
102.60000000   6.01786442   0.00000000
102.70000000   6.01714407   0.00000000
102.80000000   6.01644869   0.00000000
102.90000000   6.01577760   0.00000000
103.00000000   6.01513013   0.00000000
103.10000000   6.01450562   0.00000000
103.20000000   6.01390343   0.00000000
103.30000000   6.01332292   0.00000000
103.40000000   6.01276346   0.00000000
103.50000000   6.01222445   0.00000000
103.60000000   6.01170527   0.00000000
103.70000000   6.01120533   0.00000000
103.80000000   6.01072407   0.00000000
103.90000000   6.01026089   0.00000000
104.00000000   6.00981526   0.00000000
104.10000000   6.00938663   0.00000000
104.20000000   6.00897445   0.00000000
104.30000000   6.00857821   0.00000000
104.40000000   6.00819740   0.00000000
104.50000000   6.00783152   0.00000000
104.60000000   6.00748007   0.00000000
104.70000000   6.00714258   0.00000000
104.80000000   6.00681859   0.00000000
104.90000000   6.00650764   0.00000000
105.00000000   6.00620928   0.00000000
105.10000000   6.00592309   0.00000000
105.20000000   6.00564863   0.00000000
105.30000000   6.00538550   0.00000000
105.40000000   6.00513330   0.00000000
105.50000000   6.00489164   0.00000000
105.60000000   6.00466013   0.00000000
105.70000000   6.00443840   0.00000000
105.80000000   6.00422609   0.00000000
105.90000000   6.00402285   0.00000000
106.00000000   6.00382833   0.00000000
106.10000000   6.00364221   0.00000000
106.20000000   6.00346415   0.00000000
106.30000000   6.00329383   0.00000000
106.40000000   6.00313096   0.00000000
106.50000000   6.00297522   0.00000000
106.60000000   6.00282632   0.00000000
106.70000000   6.00268397   0.00000000
106.80000000   6.00254789   0.00000000
106.90000000   6.00241780   0.00000000
107.00000000   6.00229344   0.00000000
107.10000000   6.00217454   0.00000000
107.20000000   6.00206082   0.00000000
107.30000000   6.00195205   0.00000000
107.40000000   6.00184796   0.00000000
107.50000000   6.00174829   0.00000000
107.60000000   6.00165280   0.00000000
107.70000000   6.00156123   0.00000000
107.80000000   6.00147333   0.00000000
107.90000000   6.00138885   0.00000000
108.00000000   6.00130752   0.00000000
108.10000000   6.00122909   0.00000000
108.20000000   6.00115330   0.00000000
108.30000000   6.00107985   0.00000000
108.40000000   6.00100849   0.00000000
108.50000000   6.00093890   0.00000000
108.60000000   6.00087080   0.00000000
108.70000000   6.00080386   0.00000000
108.80000000   6.00073775   0.00000000
108.90000000   6.00067212   0.00000000
109.00000000   6.00060659   0.00000000
109.10000000   6.00054077   0.00000000
109.20000000   6.00047425   0.00000000
109.30000000   6.00040657   0.00000000
109.40000000   6.00033725   0.00000000
109.50000000   6.00026577   0.00000000
109.60000000   6.00019158   0.00000000
109.70000000   6.00011407   0.00000000
109.80000000   6.00003261   0.00000000
109.90000000   5.99994650   0.00000000
110.00000000   5.99985498   0.00000000
110.10000000   5.99975724   0.00000000
110.20000000   5.99965240   0.00000000
110.30000000   5.99953951   0.00000000
110.40000000   5.99941754   0.00000000
110.50000000   5.99928539   0.00000000
110.60000000   5.99914185   0.00000000
110.70000000   5.99898564   0.00000000
110.80000000   5.99881536   0.00000000
110.90000000   5.99862951   0.00000000
111.00000000   5.99842647   0.00000000
111.10000000   5.99820450   0.00000000
111.20000000   5.99796173   0.00000000
111.30000000   5.99769616   0.00000000
111.40000000   5.99740563   0.00000000
111.50000000   5.99708785   0.00000000
111.60000000   5.99674034   0.00000000
111.70000000   5.99636049   0.00000000
111.80000000   5.99594547   0.00000000
111.90000000   5.99549231   0.00000000
112.00000000   5.99499782   0.00000000
112.10000000   5.99445862   0.00000000
112.20000000   5.99387113   0.00000000
112.30000000   5.99323156   0.00000000
112.40000000   5.99253589   0.00000000
112.50000000   5.99177989   0.00000000
112.60000000   5.99095908   0.00000000
112.70000000   5.99006878   0.00000000
112.80000000   5.98910404   0.00000000
112.90000000   5.98805969   0.00000000
113.00000000   5.98693030   0.00000000
113.10000000   5.98571020   0.00000000
113.20000000   5.98439348   0.00000000
113.30000000   5.98297397   0.00000000
113.40000000   5.98144528   0.00000000
113.50000000   5.97980076   0.00000000
113.60000000   5.97803353   0.00000000
113.70000000   5.97613648   0.00000000
113.80000000   5.97410227   0.00000000
113.90000000   5.97192336   0.00000000
114.00000000   5.96959199   0.00000000
114.10000000   5.96710023   0.00000000
114.20000000   5.96443994   0.00000000
114.30000000   5.96160285   0.00000000
114.40000000   5.95858053   0.00000000
114.50000000   5.95536443   0.00000000
114.60000000   5.95194589   0.00000000
114.70000000   5.94831618   0.00000000
114.80000000   5.94446650   0.00000000
114.90000000   5.94038803   0.00000000
115.00000000   5.93607196   0.00000000
115.10000000   5.93150949   0.00000000
115.20000000   5.92669189   0.00000000
115.30000000   5.92161053   0.00000000
115.40000000   5.91625690   0.00000000
115.50000000   5.91062265   0.00000000
115.60000000   5.90469966   0.00000000
115.70000000   5.89848003   0.00000000
115.80000000   5.89195613   0.00000000
115.90000000   5.88512068   0.00000000
116.00000000   5.87796673   0.00000000
116.10000000   5.87048776   0.00000000
116.20000000   5.86267766   0.00000000
116.30000000   5.85453084   0.00000000
116.40000000   5.84604219   0.00000000
116.50000000   5.83720720   0.00000000
116.60000000   5.82802193   0.00000000
116.70000000   5.81848310   0.00000000
116.80000000   5.80858810   0.00000000
116.90000000   5.79833501   0.00000000
117.00000000   5.78772267   0.00000000
117.10000000   5.77675069   0.00000000
117.20000000   5.76541946   0.00000000
117.30000000   5.75373023   0.00000000
117.40000000   5.74168507   0.00000000
117.50000000   5.72928691   0.00000000
117.60000000   5.71653959   0.00000000
117.70000000   5.70344781   0.00000000
117.80000000   5.69001720   0.00000000
117.90000000   5.67625429   0.00000000
118.00000000   5.66216652   0.00000000
118.10000000   5.64776221   0.00000000
118.20000000   5.63305063   0.00000000
118.30000000   5.61804189   0.00000000
118.40000000   5.60274699   0.00000000
118.50000000   5.58717779   0.00000000
118.60000000   5.57134696   0.00000000
118.70000000   5.55526798   0.00000000
118.80000000   5.53895508   0.00000000
118.90000000   5.52242326   0.00000000
119.00000000   5.50568816   0.00000000
119.10000000   5.48876610   0.00000000
119.20000000   5.47167399   0.00000000
119.30000000   5.45442930   0.00000000
119.40000000   5.43704997   0.00000000
119.50000000   5.41955441   0.00000000
119.60000000   5.40196139   0.00000000
119.70000000   5.38429002   0.00000000
119.80000000   5.36655965   0.00000000
119.90000000   5.34878984   0.00000000
120.00000000   5.33100029   0.00000000
120.10000000   5.31321073   0.00000000
120.20000000   5.29544093   0.00000000
120.30000000   5.27771057   0.00000000
120.40000000   5.26003922   0.00000000
120.50000000   5.24244622   0.00000000
120.60000000   5.22495068   0.00000000
120.70000000   5.20757138   0.00000000
120.80000000   5.19032672   0.00000000
120.90000000   5.17323465   0.00000000
121.00000000   5.15631263   0.00000000
121.10000000   5.13957758   0.00000000
121.20000000   5.12304581   0.00000000
121.30000000   5.10673298   0.00000000
121.40000000   5.09065406   0.00000000
121.50000000   5.07482330   0.00000000
121.60000000   5.05925418   0.00000000
121.70000000   5.04395937   0.00000000
121.80000000   5.02895073   0.00000000
121.90000000   5.01423925   0.00000000
122.00000000   4.99983506   0.00000000
122.10000000   4.98574741   0.00000000
122.20000000   4.97198463   0.00000000
122.30000000   4.95855417   0.00000000
122.40000000   4.94546256   0.00000000
122.50000000   4.93271540   0.00000000
122.60000000   4.92031743   0.00000000
122.70000000   4.90827247   0.00000000
122.80000000   4.89658346   0.00000000
122.90000000   4.88525248   0.00000000
123.00000000   4.87428075   0.00000000
123.10000000   4.86366868   0.00000000
123.20000000   4.85341589   0.00000000
123.30000000   4.84352120   0.00000000
123.40000000   4.83398272   0.00000000
123.50000000   4.82479782   0.00000000
123.60000000   4.81596323   0.00000000
123.70000000   4.80747501   0.00000000
123.80000000   4.79932865   0.00000000
123.90000000   4.79151906   0.00000000
124.00000000   4.78404062   0.00000000
124.10000000   4.77688725   0.00000000
124.20000000   4.77005242   0.00000000
124.30000000   4.76352919   0.00000000
124.40000000   4.75731026   0.00000000
124.50000000   4.75138804   0.00000000
124.60000000   4.74575462   0.00000000
124.70000000   4.74040187   0.00000000
124.80000000   4.73532146   0.00000000
124.90000000   4.73050487   0.00000000
125.00000000   4.72594349   0.00000000
125.10000000   4.72162859   0.00000000
125.20000000   4.71755138   0.00000000
125.30000000   4.71370304   0.00000000
125.40000000   4.71007477   0.00000000
125.50000000   4.70665777   0.00000000
125.60000000   4.70344331   0.00000000
125.70000000   4.70042276   0.00000000
125.80000000   4.69758756   0.00000000
125.90000000   4.69492929   0.00000000
126.00000000   4.69243968   0.00000000
126.10000000   4.69011062   0.00000000
126.20000000   4.68793417   0.00000000
126.30000000   4.68590260   0.00000000
126.40000000   4.68400836   0.00000000
126.50000000   4.68224413   0.00000000
126.60000000   4.68060281   0.00000000
126.70000000   4.67907754   0.00000000
126.80000000   4.67766169   0.00000000
126.90000000   4.67634886   0.00000000
127.00000000   4.67513291   0.00000000
127.10000000   4.67400794   0.00000000
127.20000000   4.67296830   0.00000000
127.30000000   4.67200859   0.00000000
127.40000000   4.67112364   0.00000000
127.50000000   4.67030853   0.00000000
127.60000000   4.66955859   0.00000000
127.70000000   4.66886938   0.00000000
127.80000000   4.66823667   0.00000000
127.90000000   4.66765648   0.00000000
128.00000000   4.66712505   0.00000000
128.10000000   4.66663881   0.00000000
128.20000000   4.66619442   0.00000000
128.30000000   4.66578872   0.00000000
128.40000000   4.66541876   0.00000000
128.50000000   4.66508177   0.00000000
128.60000000   4.66477514   0.00000000
128.70000000   4.66449646   0.00000000
128.80000000   4.66424345   0.00000000
128.90000000   4.66401401   0.00000000
129.00000000   4.66380616   0.00000000
129.10000000   4.66361810   0.00000000
129.20000000   4.66344812   0.00000000
129.30000000   4.66329465   0.00000000
129.40000000   4.66315625   0.00000000
129.50000000   4.66303158   0.00000000
129.60000000   4.66291939   0.00000000
129.70000000   4.66281855   0.00000000
129.80000000   4.66272802   0.00000000
129.90000000   4.66264682   0.00000000
130.00000000   4.66257408   0.00000000
130.10000000   4.66250899   0.00000000
130.20000000   4.66245081   0.00000000
130.30000000   4.66239886   0.00000000
130.40000000   4.66235253   0.00000000
130.50000000   4.66231126   0.00000000
130.60000000   4.66227453   0.00000000
130.70000000   4.66224188   0.00000000
130.80000000   4.66221289   0.00000000
130.90000000   4.66218717   0.00000000
131.00000000   4.66216440   0.00000000
131.10000000   4.66214424   0.00000000
131.20000000   4.66212642   0.00000000
131.30000000   4.66211068   0.00000000
131.40000000   4.66209680   0.00000000
131.50000000   4.66208457   0.00000000
131.60000000   4.66207381   0.00000000
131.70000000   4.66206435   0.00000000
131.80000000   4.66205605   0.00000000
131.90000000   4.66204876   0.00000000
132.00000000   4.66204238   0.00000000
132.10000000   4.66203679   0.00000000
132.20000000   4.66203190   0.00000000
132.30000000   4.66202764   0.00000000
132.40000000   4.66202392   0.00000000
132.50000000   4.66202068   0.00000000
132.60000000   4.66201786   0.00000000
132.70000000   4.66201540   0.00000000
132.80000000   4.66201327   0.00000000
132.90000000   4.66201143   0.00000000
133.00000000   4.66200983   0.00000000
133.10000000   4.66200844   0.00000000
133.20000000   4.66200724   0.00000000
133.30000000   4.66200621   0.00000000
133.40000000   4.66200532   0.00000000
133.50000000   4.66200455   0.00000000
133.60000000   4.66200388   0.00000000
133.70000000   4.66200332   0.00000000
133.80000000   4.66200283   0.00000000
133.90000000   4.66200241   0.00000000
134.00000000   4.66200205   0.00000000
134.10000000   4.66200174   0.00000000
134.20000000   4.66200148   0.00000000
134.30000000   4.66200125   0.00000000
134.40000000   4.66200106   0.00000000
134.50000000   4.66200090   0.00000000
134.60000000   4.66200076   0.00000000
134.70000000   4.66200064   0.00000000
134.80000000   4.66200054   0.00000000
134.90000000   4.66200046   0.00000000
135.00000000   4.66200038   0.00000000
135.10000000   4.66200032   0.00000000
135.20000000   4.66200027   0.00000000
135.30000000   4.66200023   0.00000000
135.40000000   4.66200019   0.00000000
135.50000000   4.66200016   0.00000000
135.60000000   4.66200013   0.00000000
135.70000000   4.66200011   0.00000000
135.80000000   4.66200009   0.00000000
135.90000000   4.66200008   0.00000000
136.00000000   4.66200006   0.00000000
136.10000000   4.66200005   0.00000000
136.20000000   4.66200004   0.00000000
136.30000000   4.66200004   0.00000000
136.40000000   4.66200003   0.00000000
136.50000000   4.66200003   0.00000000
136.60000000   4.66200002   0.00000000
136.70000000   4.66200002   0.00000000
136.80000000   4.66200001   0.00000000
136.90000000   4.66200001   0.00000000
137.00000000   4.66200001   0.00000000
137.10000000   4.66200001   0.00000000
137.20000000   4.66200001   0.00000000
137.30000000   4.66200000   0.00000000
137.40000000   4.66200000   0.00000000
137.50000000   4.66200000   0.00000000
137.60000000   4.66200000   0.00000000
137.70000000   4.66200000   0.00000000
137.80000000   4.66200000   0.00000000
137.90000000   4.66200000   0.00000000
138.00000000   4.66200000   0.00000000
138.10000000   4.66199999   0.00000000
138.20000000   4.66199999   0.00000000
138.30000000   4.66199999   0.00000000
138.40000000   4.66199999   0.00000000
138.50000000   4.66199998   0.00000000
138.60000000   4.66199997   0.00000000
138.70000000   4.66199996   0.00000000
138.80000000   4.66199995   0.00000000
138.90000000   4.66199993   0.00000000
139.00000000   4.66199991   0.00000000
139.10000000   4.66199988   0.00000000
139.20000000   4.66199984   0.00000000
139.30000000   4.66199980   0.00000000
139.40000000   4.66199973   0.00000000
139.50000000   4.66199965   0.00000000
139.60000000   4.66199954   0.00000000
139.70000000   4.66199939   0.00000000
139.80000000   4.66199921   0.00000000
139.90000000   4.66199897   0.00000000
140.00000000   4.66199866   0.00000000
140.10000000   4.66199827   0.00000000
140.20000000   4.66199777   0.00000000
140.30000000   4.66199712   0.00000000
140.40000000   4.66199630   0.00000000
140.50000000   4.66199526   0.00000000
140.60000000   4.66199394   0.00000000
140.70000000   4.66199226   0.00000000
140.80000000   4.66199015   0.00000000
140.90000000   4.66198750   0.00000000
141.00000000   4.66198416   0.00000000
141.10000000   4.66197998   0.00000000
141.20000000   4.66197477   0.00000000
141.30000000   4.66196827   0.00000000
141.40000000   4.66196019   0.00000000
141.50000000   4.66195017   0.00000000
141.60000000   4.66193778   0.00000000
141.70000000   4.66192250   0.00000000
141.80000000   4.66190369   0.00000000
141.90000000   4.66188061   0.00000000
142.00000000   4.66185235   0.00000000
142.10000000   4.66181783   0.00000000
142.20000000   4.66177577   0.00000000
142.30000000   4.66172467   0.00000000
142.40000000   4.66166271   0.00000000
142.50000000   4.66158780   0.00000000
142.60000000   4.66149744   0.00000000
142.70000000   4.66138872   0.00000000
142.80000000   4.66125824   0.00000000
142.90000000   4.66110203   0.00000000
143.00000000   4.66091548   0.00000000
143.10000000   4.66069327   0.00000000
143.20000000   4.66042924   0.00000000
143.30000000   4.66011628   0.00000000
143.40000000   4.65974628   0.00000000
143.50000000   4.65930991   0.00000000
143.60000000   4.65879656   0.00000000
143.70000000   4.65819417   0.00000000
143.80000000   4.65748903   0.00000000
143.90000000   4.65666571   0.00000000
144.00000000   4.65570678   0.00000000
144.10000000   4.65459269   0.00000000
144.20000000   4.65330158   0.00000000
144.30000000   4.65180905   0.00000000
144.40000000   4.65008798   0.00000000
144.50000000   4.64810834   0.00000000
144.60000000   4.64583697   0.00000000
144.70000000   4.64323737   0.00000000
144.80000000   4.64026954   0.00000000
144.90000000   4.63688979   0.00000000
145.00000000   4.63305054   0.00000000
145.10000000   4.62870022   0.00000000
145.20000000   4.62378309   0.00000000
145.30000000   4.61823918   0.00000000
145.40000000   4.61200420   0.00000000
145.50000000   4.60500951   0.00000000
145.60000000   4.59718213   0.00000000
145.70000000   4.58844479   0.00000000
145.80000000   4.57871607   0.00000000
145.90000000   4.56791051   0.00000000
146.00000000   4.55593888   0.00000000
146.10000000   4.54270847   0.00000000
146.20000000   4.52812340   0.00000000
146.30000000   4.51208512   0.00000000
146.40000000   4.49449285   0.00000000
146.50000000   4.47524421   0.00000000
146.60000000   4.45423581   0.00000000
146.70000000   4.43136402   0.00000000
146.80000000   4.40652570   0.00000000
146.90000000   4.37961913   0.00000000
147.00000000   4.35054483   0.00000000
147.10000000   4.31920659   0.00000000
147.20000000   4.28551245   0.00000000
147.30000000   4.24937574   0.00000000
147.40000000   4.21071614   0.00000000
147.50000000   4.16946076   0.00000000
147.60000000   4.12554520   0.00000000
147.70000000   4.07891464   0.00000000
147.80000000   4.02952482   0.00000000
147.90000000   3.97734308   0.00000000
148.00000000   3.92234921   0.00000000
148.10000000   3.86453634   0.00000000
148.20000000   3.80391170   0.00000000
148.30000000   3.74049722   0.00000000
148.40000000   3.67433013   0.00000000
148.50000000   3.60546328   0.00000000
148.60000000   3.53396545   0.00000000
148.70000000   3.45992143   0.00000000
148.80000000   3.38343197   0.00000000
148.90000000   3.30461354   0.00000000
149.00000000   3.22359799   0.00000000
149.10000000   3.14053196   0.00000000
149.20000000   3.05557616   0.00000000
149.30000000   2.96890450   0.00000000
149.40000000   2.88070305   0.00000000
149.50000000   2.79116889   0.00000000
149.60000000   2.70050877   0.00000000
149.70000000   2.60893768   0.00000000
149.80000000   2.51667738   0.00000000
149.90000000   2.42395471   0.00000000
150.00000000   2.33100000   0.00000000
150.10000000   2.23804529   0.00000000
150.20000000   2.14532262   0.00000000
150.30000000   2.05306232   0.00000000
150.40000000   1.96149123   0.00000000
150.50000000   1.87083111   0.00000000
150.60000000   1.78129695   0.00000000
150.70000000   1.69309550   0.00000000
150.80000000   1.60642384   0.00000000
150.90000000   1.52146804   0.00000000
151.00000000   1.43840201   0.00000000
151.10000000   1.35738646   0.00000000
151.20000000   1.27856803   0.00000000
151.30000000   1.20207857   0.00000000
151.40000000   1.12803455   0.00000000
151.50000000   1.05653672   0.00000000
151.60000000   0.98766987   0.00000000
151.70000000   0.92150278   0.00000000
151.80000000   0.85808830   0.00000000
151.90000000   0.79746366   0.00000000
152.00000000   0.73965079   0.00000000
152.10000000   0.68465692   0.00000000
152.20000000   0.63247518   0.00000000
152.30000000   0.58308536   0.00000000
152.40000000   0.53645480   0.00000000
152.50000000   0.49253924   0.00000000
152.60000000   0.45128386   0.00000000
152.70000000   0.41262426   0.00000000
152.80000000   0.37648755   0.00000000
152.90000000   0.34279341   0.00000000
153.00000000   0.31145517   0.00000000
153.10000000   0.28238087   0.00000000
153.20000000   0.25547430   0.00000000
153.30000000   0.23063598   0.00000000
153.40000000   0.20776419   0.00000000
153.50000000   0.18675579   0.00000000
153.60000000   0.16750715   0.00000000
153.70000000   0.14991488   0.00000000
153.80000000   0.13387660   0.00000000
153.90000000   0.11929153   0.00000000
154.00000000   0.10606112   0.00000000
154.10000000   0.09408949   0.00000000
154.20000000   0.08328393   0.00000000
154.30000000   0.07355521   0.00000000
154.40000000   0.06481787   0.00000000
154.50000000   0.05699049   0.00000000
154.60000000   0.04999580   0.00000000
154.70000000   0.04376082   0.00000000
154.80000000   0.03821691   0.00000000
154.90000000   0.03329978   0.00000000
155.00000000   0.02894946   0.00000000
155.10000000   0.02511021   0.00000000
155.20000000   0.02173046   0.00000000
155.30000000   0.01876263   0.00000000
155.40000000   0.01616303   0.00000000
155.50000000   0.01389166   0.00000000
155.60000000   0.01191202   0.00000000
155.70000000   0.01019095   0.00000000
155.80000000   0.00869842   0.00000000
155.90000000   0.00740731   0.00000000
156.00000000   0.00629322   0.00000000
156.10000000   0.00533429   0.00000000
156.20000000   0.00451097   0.00000000
156.30000000   0.00380583   0.00000000
156.40000000   0.00320344   0.00000000
156.50000000   0.00269009   0.00000000
156.60000000   0.00225372   0.00000000
156.70000000   0.00188372   0.00000000
156.80000000   0.00157076   0.00000000
156.90000000   0.00130673   0.00000000
157.00000000   0.00108452   0.00000000
157.10000000   0.00089797   0.00000000
157.20000000   0.00074176   0.00000000
157.30000000   0.00061128   0.00000000
157.40000000   0.00050256   0.00000000
157.50000000   0.00041220   0.00000000
157.60000000   0.00033729   0.00000000
157.70000000   0.00027533   0.00000000
157.80000000   0.00022423   0.00000000
157.90000000   0.00018217   0.00000000
158.00000000   0.00014765   0.00000000
158.10000000   0.00011939   0.00000000
158.20000000   0.00009631   0.00000000
158.30000000   0.00007750   0.00000000
158.40000000   0.00006222   0.00000000
158.50000000   0.00004983   0.00000000
158.60000000   0.00003981   0.00000000
158.70000000   0.00003173   0.00000000
158.80000000   0.00002523   0.00000000
158.90000000   0.00002002   0.00000000
159.00000000   0.00001584   0.00000000
159.10000000   0.00001250   0.00000000
159.20000000   0.00000985   0.00000000
159.30000000   0.00000774   0.00000000
159.40000000   0.00000606   0.00000000
159.50000000   0.00000474   0.00000000
159.60000000   0.00000370   0.00000000
159.70000000   0.00000288   0.00000000
159.80000000   0.00000223   0.00000000
159.90000000   0.00000173   0.00000000
160.00000000   0.00000134   0.00000000
